Wavelength,Gray_Value
72.177,38.98
72.4103,38.54
72.6436,38.173
72.8769,37.783
73.1102,37.923
73.3435,38.503
73.5768,38.647
73.8101,37.857
74.0434,36.747
74.2767,37.047
74.51,37.603
74.7433,37.687
74.9766,37.417
75.2099,37.577
75.4432,37.187
75.6765,36.53
75.9098,36.393
76.1431,36.71
76.3764,37.283
76.6097,37.433
76.843,36.963
77.0763,36.413
77.3096,35.917
77.5429,35.717
77.7762,35.633
78.0095,36.47
78.2428,36.483
78.4761,36.21
78.7094,36.017
78.9427,35.497
79.176,35.157
79.4093,35.603
79.6426,35.797
79.8759,36.64
80.1092,35.95
80.3425,34.287
80.5758,34.037
80.8091,34.673
81.04240000000001,34.813
81.2757,34.693
81.50900000000001,35.083
81.7423,34.807
81.97560000000001,34.78
82.2089,34.8
82.44220000000001,34.873
82.6755,34.923
82.90880000000001,34.37
83.1421,33.953
83.37540000000001,33.897
83.60870000000001,33.36
83.84200000000001,33.957
84.07530000000001,34.167
84.30860000000001,34.063
84.54190000000001,34.733
84.77520000000001,34.63
85.00850000000001,33.17
85.24180000000001,32.367
85.47510000000001,32.887
85.70840000000001,32.857
85.94170000000001,32.837
86.17500000000001,33.11
86.40830000000001,33.603
86.64160000000001,33.06
86.87490000000001,32.12
87.10820000000001,32.927
87.34150000000001,31.97
87.57480000000001,31.38
87.80810000000001,31.407
88.04140000000001,32.09
88.27470000000001,32.513
88.50800000000001,32.47
88.74130000000001,32.247
88.97460000000001,32.093
89.20790000000001,31.497
89.44120000000001,30.917
89.67450000000001,30.787
89.90780000000001,30.877
90.14110000000001,31.507
90.37440000000001,31.623
90.60770000000001,30.993
90.84100000000001,31.013
91.07430000000001,31.02
91.30760000000001,31.06
91.54090000000001,31.207
91.77420000000001,31.357
92.00750000000001,30.427
92.24080000000001,29.473
92.4741,29.65
92.7074,31.77
92.9407,30.303
93.174,29.783
93.4073,29.893
93.6406,29.323
93.8739,29.34
94.1072,29.607
94.3405,29.433
94.5738,29.923
94.8071,29.773
95.0404,30.123
95.2737,30.15
95.507,29.717
95.7403,30.147
95.9736,30.32
96.2069,29.563
96.4402,28.577
96.6735,29.323
96.9068,29.707
97.1401,29.587
97.3734,29.45
97.6067,29.857
97.84,29.62
98.0733,28.96
98.3066,29.77
98.5399,29.66
98.7732,28.967
99.0065,28.417
99.2398,28.617
99.4731,29.287
99.7064,29.32
99.93970000000002,28.77
100.173,28.983
100.40630000000002,28.603
100.6396,28.387
100.87290000000002,28.547
101.1062,28.48
101.33950000000002,28.3
101.5728,28.203
101.80610000000001,28.14
102.0394,27.757
102.27270000000001,28.737
102.506,29.397
102.73930000000001,28.337
102.9726,26.67
103.20590000000001,27.02
103.4392,28.103
103.67250000000001,27.883
103.9058,28.113
104.13910000000001,27.973
104.3724,28.1
104.60570000000001,28.26
104.839,27.797
105.07230000000001,26.847
105.3056,26.653
105.53890000000001,27.077
105.7722,28.72
106.00550000000001,27.983
106.2388,27.523
106.47210000000001,27.73
106.7054,27.62
106.93870000000001,27.347
107.17200000000001,27.367
107.40530000000001,27.56
107.63860000000001,27.3
107.87190000000001,27.24
108.10520000000001,26.937
108.33850000000001,26.243
108.57180000000001,26.113
108.80510000000001,26.88
109.03840000000001,26.85
109.27170000000001,26.007
109.50500000000001,25.83
109.73830000000001,26.18
109.97160000000001,26.023
110.20490000000001,25.73
110.43820000000001,25.853
110.67150000000001,26.267
110.90480000000001,26.143
111.13810000000001,25.593
111.37140000000001,25.513
111.60470000000001,25.103
111.83800000000001,24.867
112.07130000000001,25.22
112.30460000000001,24.967
112.53790000000001,24.427
112.77120000000001,23.813
113.00450000000001,23.883
113.23780000000001,24.713
113.4711,25.893
113.7044,25.583
113.9377,24.917
114.171,23.977
114.4043,23.523
114.6376,24.057
114.8709,23.66
115.1042,23.637
115.3375,25.147
115.5708,25.573
115.8041,23.99
116.0374,22.213
116.2707,21.833
116.504,22.163
116.7373,22.13
116.9706,22.94
117.2039,23.46
117.43720000000002,23.437
117.6705,22.617
117.90380000000002,21.333
118.1371,20.893
118.37040000000002,21.173
118.6037,21.63
118.83700000000002,22.217
119.0703,22.67
119.30360000000002,22.61
119.5369,21.843
119.77020000000002,20.73
120.0035,19.78
120.23680000000002,19.67
120.4701,20.447
120.70340000000002,21.557
120.9367,21.67
121.17000000000002,21.42
121.4033,20.567
121.63660000000002,20.163
121.8699,21.203
122.10320000000002,21.933
122.3365,21.49
122.56980000000001,21.953
122.8031,21.967
123.03640000000001,21.21
123.2697,20.197
123.50300000000001,19.993
123.7363,20.487
123.96960000000001,21.087
124.2029,21.14
124.43620000000001,21.193
124.6695,21.407
124.90280000000001,21.57
125.1361,20.743
125.36940000000001,19.483
125.6027,19.353
125.83600000000001,19.89
126.0693,19.827
126.30260000000001,20.963
126.5359,19.853
126.76920000000001,18.79
127.00250000000001,18.873
127.23580000000001,19.297
127.46910000000001,19.473
127.70240000000001,19.167
127.93570000000001,19.097
128.169,19.73
128.40230000000003,19.663
128.6356,19.43
128.8689,18.963
129.1022,18.743
129.33550000000002,18.9
129.5688,19.273
129.8021,19.3
130.0354,20.0
130.26870000000002,19.527
130.502,19.083
130.7353,19.123
130.9686,19.1
131.20190000000002,19.317
131.4352,19.08
131.6685,18.727
131.9018,18.49
132.13510000000002,18.01
132.3684,18.08
132.6017,18.057
132.835,18.153
133.06830000000002,18.77
133.3016,18.473
133.5349,16.963
133.7682,17.92
134.00150000000002,17.883
134.2348,17.89
134.4681,18.303
134.7014,18.557
134.93470000000002,18.95
135.168,18.253
135.4013,17.35
135.6346,17.78
135.86790000000002,16.99
136.1012,17.187
136.3345,17.61
136.5678,17.53
136.80110000000002,18.097
137.0344,18.49
137.2677,17.693
137.501,18.03
137.73430000000002,17.213
137.9676,16.727
138.2009,16.96
138.4342,16.743
138.66750000000002,16.873
138.9008,16.827
139.1341,16.813
139.3674,17.993
139.60070000000002,18.26
139.834,17.99
140.0673,17.78
140.3006,17.513
140.53390000000002,17.617
140.7672,17.07
141.0005,16.507
141.2338,16.747
141.46710000000002,16.067
141.7004,15.397
141.93370000000002,15.213
142.16700000000003,15.123
142.40030000000002,15.127
142.6336,15.053
142.86690000000002,15.457
143.10020000000003,16.803
143.33350000000002,17.137
143.5668,17.053
143.80010000000001,16.84
144.03340000000003,16.223
144.26670000000001,15.873
144.5,15.687
144.7333,15.943
144.96660000000003,16.37
145.1999,16.207
145.4332,15.27
145.6665,14.213
145.89980000000003,13.7
146.1331,13.953
146.3664,14.463
146.5997,14.7
146.83300000000003,14.933
147.0663,15.49
147.2996,15.207
147.5329,14.777
147.76620000000003,14.917
147.9995,15.05
148.2328,14.633
148.4661,14.417
148.69940000000003,14.463
148.9327,14.097
149.166,13.51
149.3993,13.91
149.63260000000002,14.4
149.8659,14.947
150.0992,14.907
150.3325,14.847
150.56580000000002,16.12
150.7991,15.007
151.0324,14.453
151.2657,14.613
151.49900000000002,14.163
151.7323,14.067
151.9656,14.303
152.1989,14.467
152.43220000000002,14.45
152.6655,15.123
152.8988,15.257
153.1321,15.103
153.36540000000002,15.42
153.5987,16.21
153.832,16.27
154.0653,15.823
154.29860000000002,15.817
154.5319,15.327
154.7652,15.13
154.9985,15.467
155.23180000000002,15.743
155.4651,15.9
155.6984,15.327
155.9317,14.703
156.16500000000002,16.19
156.3983,16.71
156.6316,17.31
156.8649,16.833
157.09820000000002,15.25
157.3315,14.247
157.5648,14.097
157.7981,13.947
158.03140000000002,14.75
158.2647,13.723
158.498,14.97
158.7313,16.727
158.96460000000002,16.68
159.1979,16.593
159.4312,16.46
159.6645,15.22
159.89780000000002,14.837
160.1311,15.35
160.3644,14.59
160.5977,14.357
160.83100000000002,14.827
161.0643,14.44
161.2976,13.997
161.5309,14.69
161.76420000000002,16.19
161.9975,16.28
162.23080000000002,15.94
162.46410000000003,15.76
162.69740000000002,15.453
162.9307,15.103
163.16400000000002,15.2
163.39730000000003,15.81
163.63060000000002,15.797
163.8639,16.057
164.09720000000002,15.84
164.33050000000003,15.39
164.56380000000001,14.803
164.7971,14.773
165.03040000000001,15.19
165.26370000000003,15.57
165.497,16.21
165.7303,16.48
165.9636,16.697
166.19690000000003,16.203
166.4302,15.567
166.6635,15.763
166.8968,15.65
167.13010000000003,14.923
167.3634,15.37
167.5967,16.06
167.83,17.277
168.06330000000003,17.31
168.2966,15.77
168.5299,15.603
168.7632,15.78
168.99650000000003,14.887
169.2298,14.113
169.4631,14.78
169.6964,15.353
169.92970000000003,15.637
170.163,15.793
170.3963,15.783
170.6296,15.223
170.86290000000002,14.54
171.0962,15.323
171.3295,16.287
171.5628,16.563
171.79610000000002,16.13
172.0294,15.87
172.2627,15.767
172.496,15.837
172.72930000000002,16.313
172.9626,16.057
173.1959,15.53
173.4292,14.953
173.66250000000002,14.74
173.8958,15.143
174.1291,15.51
174.3624,15.693
174.59570000000002,15.8
174.829,16.247
175.0623,15.147
175.2956,14.37
175.52890000000002,14.537
175.7622,14.723
175.9955,14.643
176.2288,14.727
176.46210000000002,15.25
176.6954,15.527
176.9287,16.05
177.162,16.277
177.39530000000002,16.11
177.6286,15.38
177.8619,14.47
178.0952,14.03
178.32850000000002,14.453
178.5618,14.577
178.7951,14.577
179.0284,14.917
179.26170000000002,15.523
179.495,15.76
179.7283,15.46
179.9616,14.897
180.19490000000002,14.663
180.4282,14.42
180.6615,14.727
180.8948,15.193
181.12810000000002,15.597
181.3614,16.0
181.5947,15.59
181.82800000000003,15.083
182.06130000000002,15.277
182.2946,16.067
182.52790000000002,15.917
182.76120000000003,15.75
182.99450000000002,15.243
183.2278,15.18
183.46110000000002,16.35
183.69440000000003,16.703
183.92770000000002,15.68
184.161,15.1
184.39430000000002,15.257
184.62760000000003,15.0
184.86090000000002,14.787
185.0942,15.347
185.32750000000001,16.16
185.56080000000003,16.15
185.79410000000001,15.523
186.0274,15.327
186.2607,15.487
186.49400000000003,14.843
186.7273,14.23
186.9606,14.553
187.1939,15.55
187.42720000000003,16.357
187.6605,16.65
187.8938,17.493
188.1271,17.74
188.36040000000003,17.767
188.5937,17.04
188.827,15.723
189.0603,15.557
189.29360000000003,15.793
189.5269,15.42
189.7602,16.457
189.9935,16.397
190.22680000000003,17.037
190.4601,17.207
190.6934,17.07
190.9267,17.483
191.16000000000003,17.183
191.3933,15.553
191.6266,16.7
191.8599,16.917
192.09320000000002,17.14
192.3265,17.043
192.5598,16.62
192.7931,16.433
193.02640000000002,16.413
193.2597,16.527
193.493,17.193
193.7263,17.463
193.95960000000002,17.617
194.1929,17.643
194.4262,17.447
194.6595,17.27
194.89280000000002,16.59
195.1261,16.117
195.3594,17.383
195.5927,16.957
195.82600000000002,16.487
196.0593,16.417
196.2926,16.72
196.5259,16.863
196.75920000000002,16.883
196.9925,16.973
197.2258,16.59
197.4591,16.347
197.69240000000002,16.383
197.9257,16.953
198.159,17.47
198.3923,18.073
198.62560000000002,17.57
198.8589,16.453
199.0922,15.92
199.3255,16.32
199.55880000000002,16.75
199.7921,16.957
200.0254,17.147
200.25870000000003,17.227
200.49200000000002,16.783
200.7253,16.113
200.9586,17.37
201.19190000000003,17.78
201.42520000000002,17.553
201.6585,17.203
201.8918,16.253
202.12510000000003,15.273
202.35840000000002,15.56
202.5917,16.98
202.825,17.833
203.05830000000003,16.78
203.29160000000002,15.63
203.5249,15.993
203.7582,16.66
203.99150000000003,16.453
204.22480000000002,16.19
204.4581,16.907
204.6914,18.247
204.92470000000003,17.837
205.15800000000002,17.103
205.3913,16.703
205.6246,16.257
205.85790000000003,16.173
206.09120000000001,15.603
206.3245,15.317
206.5578,15.817
206.79110000000003,16.53
207.0244,16.63
207.2577,15.793
207.49099999999999,14.887
207.72430000000003,15.717
207.9576,16.78
208.1909,16.76
208.42419999999998,16.59
208.65750000000003,16.603
208.8908,16.287
209.1241,15.433
209.35739999999998,15.103
209.59070000000003,15.537
209.824,15.377
210.0573,14.847
210.29059999999998,16.733
210.52390000000003,17.7
210.7572,18.257
210.9905,17.457
211.22379999999998,16.387
211.45710000000003,16.08
211.6904,16.287
211.9237,16.323
212.15700000000004,16.49
212.39030000000002,17.06
212.6236,18.14
212.8569,17.85
213.09020000000004,16.653
213.32350000000002,17.63
213.5568,17.813
213.7901,15.923
214.02340000000004,14.627
214.25670000000002,15.94
214.49,17.063
214.7233,17.267
214.95660000000004,16.853
215.18990000000002,16.94
215.4232,17.23
215.6565,17.453
215.88980000000004,17.35
216.12310000000002,16.4
216.3564,16.24
216.5897,16.847
216.82300000000004,17.563
217.05630000000002,18.18
217.2896,18.137
217.5229,17.673
217.75620000000004,17.923
217.98950000000002,18.07
218.2228,18.63
218.4561,18.413
218.68940000000003,17.56
218.92270000000002,18.007
219.156,18.823
219.3893,18.603
219.62260000000003,18.42
219.85590000000002,17.88
220.0892,18.763
220.3225,18.913
220.55580000000003,17.833
220.78910000000002,18.88
221.0224,19.803
221.2557,18.933
221.48900000000003,18.78
221.72230000000002,18.087
221.9556,18.353
222.1889,19.217
222.42220000000003,19.71
222.65550000000002,20.173
222.8888,20.34
223.1221,19.943
223.35540000000003,19.6
223.58870000000002,19.12
223.822,18.897
224.0553,18.837
224.28860000000003,18.76
224.52190000000002,20.137
224.7552,20.473
224.9885,19.38
225.22180000000003,18.817
225.45510000000002,19.657
225.6884,20.143
225.9217,19.0
226.15500000000003,17.12
226.38830000000002,17.323
226.6216,18.457
226.8549,18.51
227.08820000000003,20.133
227.32150000000001,21.54
227.5548,21.09
227.7881,18.987
228.02140000000003,18.16
228.2547,18.84
228.488,19.323
228.72129999999999,19.423
228.95460000000003,19.587
229.1879,20.233
229.4212,20.413
229.65449999999998,20.017
229.88780000000003,19.547
230.1211,19.54
230.3544,19.693
230.58769999999998,19.793
230.82100000000003,20.193
231.0543,20.387
231.2876,20.477
231.52090000000004,20.34
231.75420000000003,19.88
231.9875,19.403
232.2208,18.843
232.45410000000004,18.607
232.68740000000003,19.357
232.9207,19.727
233.154,19.81
233.38730000000004,20.02
233.62060000000002,20.353
233.8539,20.0
234.0872,19.643
234.32050000000004,20.013
234.55380000000002,20.82
234.7871,19.263
235.0204,17.737
235.25370000000004,18.03
235.48700000000002,18.25
235.7203,18.387
235.9536,18.693
236.18690000000004,19.167
236.42020000000002,20.287
236.6535,20.443
236.8868,19.773
237.12010000000004,19.007
237.35340000000002,18.683
237.5867,18.89
237.82,18.807
238.05330000000004,18.87
238.28660000000002,19.533
238.5199,19.647
238.7532,19.587
238.98650000000004,18.887
239.21980000000002,18.247
239.4531,18.5
239.6864,18.797
239.91970000000003,18.633
240.15300000000002,19.897
240.3863,20.07
240.6196,20.46
240.85290000000003,20.313
241.08620000000002,19.55
241.3195,19.68
241.5528,19.657
241.78610000000003,18.647
242.01940000000002,18.763
242.2527,20.17
242.486,21.127
242.71930000000003,20.867
242.95260000000002,20.613
243.1859,20.733
243.4192,20.157
243.65250000000003,19.24
243.88580000000002,18.923
244.1191,19.463
244.3524,18.78
244.58570000000003,18.227
244.81900000000002,19.36
245.0523,19.773
245.2856,19.387
245.51890000000003,19.433
245.75220000000002,19.773
245.9855,20.423
246.2188,20.303
246.45210000000003,19.223
246.68540000000002,19.39
246.9187,20.473
247.152,20.543
247.38530000000003,20.077
247.61860000000001,18.623
247.8519,18.673
248.0852,19.453
248.31850000000003,20.59
248.55180000000001,21.42
248.7851,21.31
249.01839999999999,20.723
249.25170000000003,20.193
249.485,20.367
249.7183,20.687
249.95159999999998,20.447
250.18490000000003,20.063
250.4182,19.9
250.6515,20.5
250.88479999999998,20.643
251.11810000000003,20.29
251.3514,19.327
251.5847,19.28
251.81800000000004,19.513
252.05130000000003,19.92
252.2846,20.827
252.5179,21.803
252.75120000000004,21.533
252.98450000000003,20.297
253.2178,20.05
253.4511,20.36
253.68440000000004,19.957
253.91770000000002,20.05
254.151,20.217
254.3843,20.013
254.61760000000004,19.707
254.85090000000002,20.197
255.0842,20.683
255.3175,19.203
255.55080000000004,19.107
255.78410000000002,20.387
256.0174,20.78
256.2507,20.027
256.48400000000004,19.77
256.7173,19.643
256.9506,20.19
257.1839,19.653
257.41720000000004,20.097
257.6505,20.97
257.8838,20.723
258.1171,20.313
258.35040000000004,20.597
258.5837,20.61
258.817,20.837
259.0503,19.44
259.28360000000004,19.957
259.5169,20.877
259.7502,20.473
259.9835,20.83
260.21680000000003,21.397
260.4501,20.53
260.6834,20.76
260.9167,21.31
261.15000000000003,21.343
261.3833,20.237
261.6166,19.863
261.8499,21.03
262.08320000000003,21.693
262.3165,21.617
262.5498,20.597
262.7831,20.857
263.01640000000003,21.09
263.2497,21.14
263.483,21.417
263.7163,21.677
263.94960000000003,21.66
264.1829,21.333
264.4162,21.83
264.6495,21.68
264.88280000000003,21.087
265.1161,20.147
265.3494,19.74
265.5827,20.18
265.81600000000003,20.773
266.0493,20.837
266.2826,21.543
266.5159,20.88
266.74920000000003,20.363
266.9825,20.61
267.2158,21.017
267.4491,21.053
267.68240000000003,20.533
267.9157,20.057
268.149,19.163
268.3823,18.923
268.61560000000003,19.397
268.8489,20.407
269.0822,20.377
269.3155,19.547
269.5488,19.38
269.7821,20.433
270.0154,21.203
270.2487,21.757
270.482,21.433
270.7153,21.253
270.9486,21.423
271.1819,21.187
271.4152,20.713
271.6485,20.703
271.8818,22.04
272.11510000000004,20.92
272.3484,20.187
272.5817,21.057
272.815,21.94
273.04830000000004,21.753
273.2816,20.957
273.5149,20.397
273.7482,20.41
273.98150000000004,21.033
274.2148,22.15
274.4481,22.317
274.6814,21.55
274.91470000000004,21.79
275.148,22.027
275.3813,21.047
275.6146,21.073
275.84790000000004,19.337
276.0812,19.757
276.3145,22.06
276.5478,23.17
276.78110000000004,22.853
277.0144,21.777
277.2477,20.547
277.481,21.78
277.71430000000004,21.493
277.9476,21.697
278.1809,22.65
278.4142,22.937
278.64750000000004,21.877
278.8808,21.213
279.1141,21.517
279.3474,22.71
279.58070000000004,21.873
279.814,21.61
280.0473,22.237
280.2806,23.02
280.51390000000004,22.953
280.7472,22.377
280.9805,21.683
281.2138,22.793
281.44710000000003,22.503
281.6804,22.117
281.9137,21.19
282.147,21.05
282.38030000000003,22.36
282.6136,23.143
282.8469,22.217
283.0802,23.367
283.31350000000003,22.777
283.5468,22.15
283.7801,22.33
284.0134,22.663
284.24670000000003,23.333
284.48,23.413
284.7133,23.627
284.9466,23.857
285.17990000000003,23.337
285.4132,22.817
285.6465,22.86
285.8798,22.47
286.11310000000003,22.307
286.3464,22.33
286.5797,22.457
286.813,22.657
287.04630000000003,23.123
287.2796,23.643
287.5129,22.743
287.7462,21.53
287.97950000000003,22.207
288.2128,23.16
288.4461,22.797
288.6794,23.93
288.91270000000003,24.103
289.146,24.083
289.3793,23.75
289.6126,23.363
289.84590000000003,23.97
290.0792,23.89
290.3125,23.053
290.5458,22.063
290.7791,22.723
291.0124,22.987
291.2457,22.81
291.47900000000004,22.333
291.7123,22.617
291.9456,22.753
292.1789,23.043
292.41220000000004,22.987
292.6455,23.423
292.8788,23.01
293.1121,22.29
293.34540000000004,22.377
293.5787,23.42
293.812,24.16
294.0453,24.01
294.27860000000004,23.27
294.5119,23.147
294.7452,23.05
294.9785,23.19
295.21180000000004,23.63
295.4451,24.097
295.6784,24.187
295.9117,23.813
296.14500000000004,21.93
296.3783,22.607
296.6116,23.597
296.8449,23.883
297.07820000000004,23.347
297.3115,23.267
297.5448,23.227
297.7781,22.597
298.01140000000004,22.89
298.2447,22.997
298.478,23.52
298.7113,23.313
298.94460000000004,22.773
299.1779,23.1
299.4112,23.607
299.6445,23.303
299.87780000000004,23.513
300.1111,23.05
300.3444,22.58
300.5777,22.417
300.81100000000004,22.31
301.0443,22.197
301.2776,21.947
301.5109,21.767
301.74420000000003,21.75
301.9775,22.147
302.2108,22.63
302.4441,23.073
302.67740000000003,23.553
302.9107,23.577
303.144,23.577
303.3773,23.613
303.61060000000003,23.72
303.8439,24.33
304.0772,24.39
304.3105,24.377
304.54380000000003,23.82
304.7771,22.357
305.0104,21.127
305.2437,20.97
305.47700000000003,21.213
305.7103,22.24
305.9436,23.583
306.1769,23.607
306.41020000000003,22.38
306.6435,22.107
306.8768,22.683
307.1101,22.723
307.34340000000003,22.337
307.5767,22.897
307.81,23.227
308.0433,23.943
308.27660000000003,24.26
308.5099,24.423
308.7432,24.007
308.9765,23.833
309.20980000000003,22.917
309.4431,23.033
309.6764,23.03
309.9097,22.807
310.14300000000003,22.247
310.3763,22.38
310.6096,22.353
310.8429,22.177
311.07620000000003,22.97
311.3095,23.093
311.5428,23.013
311.77610000000004,23.517
312.0094,24.103
312.2427,23.813
312.476,22.82
312.70930000000004,22.457
312.9426,21.86
313.1759,22.62
313.4092,23.753
313.64250000000004,23.61
313.8758,23.15
314.1091,23.47
314.3424,23.427
314.57570000000004,22.383
314.809,23.39
315.0423,23.863
315.2756,24.523
315.50890000000004,24.16
315.7422,23.113
315.9755,23.69
316.2088,23.64
316.44210000000004,22.603
316.6754,22.973
316.9087,22.46
317.142,22.17
317.37530000000004,22.333
317.6086,22.23
317.8419,21.75
318.0752,21.81
318.30850000000004,22.283
318.5418,23.443
318.7751,23.073
319.0084,23.463
319.24170000000004,22.873
319.475,21.27
319.7083,20.847
319.9416,21.337
320.17490000000004,21.203
320.4082,21.05
320.6415,20.34
320.8748,21.277
321.10810000000004,22.72
321.3414,23.143
321.5747,23.547
321.808,23.577
322.04130000000004,22.453
322.2746,20.87
322.5079,21.013
322.7412,21.033
322.97450000000003,20.92
323.2078,20.933
323.4411,22.2
323.6744,22.21
323.90770000000003,21.017
324.141,21.623
324.3743,23.23
324.6076,23.903
324.84090000000003,22.457
325.0742,21.527
325.3075,22.413
325.5408,22.803
325.77410000000003,21.997
326.0074,21.223
326.2407,21.573
326.474,22.173
326.70730000000003,22.923
326.9406,23.54
327.1739,24.0
327.4072,23.34
327.64050000000003,21.997
327.8738,21.73
328.1071,22.09
328.34040000000005,22.473
328.57370000000003,22.18
328.807,21.767
329.0403,22.453
329.27360000000004,23.36
329.50690000000003,22.853
329.7402,22.993
329.9735,22.92
330.20680000000004,23.18
330.44010000000003,23.237
330.6734,22.633
330.9067,21.807
331.14000000000004,22.067
331.37330000000003,22.74
331.6066,23.213
331.83990000000006,23.783
332.07320000000004,23.357
332.3065,22.927
332.5398,22.777
332.77310000000006,23.0
333.00640000000004,22.78
333.2397,22.787
333.473,22.763
333.70630000000006,21.837
333.93960000000004,22.197
334.1729,23.247
334.4062,23.543
334.63950000000006,23.953
334.87280000000004,24.407
335.1061,24.083
335.3394,24.18
335.57270000000005,24.61
335.80600000000004,24.993
336.0393,24.327
336.2726,23.527
336.50590000000005,23.977
336.73920000000004,24.32
336.9725,24.043
337.2058,23.963
337.43910000000005,24.173
337.67240000000004,23.647
337.9057,23.3
338.139,24.073
338.37230000000005,24.407
338.60560000000004,24.293
338.8389,24.417
339.0722,24.887
339.30550000000005,24.42
339.53880000000004,24.457
339.7721,24.773
340.0054,24.7
340.23870000000005,24.943
340.47200000000004,25.087
340.7053,24.84
340.9386,24.573
341.17190000000005,23.2
341.40520000000004,21.963
341.6385,22.387
341.8718,24.36
342.10510000000005,25.377
342.33840000000004,24.503
342.5717,23.167
342.805,23.753
343.03830000000005,24.277
343.27160000000003,24.523
343.5049,23.547
343.7382,22.327
343.97150000000005,21.93
344.20480000000003,22.447
344.4381,23.2
344.6714,23.5
344.90470000000005,22.403
345.13800000000003,22.32
345.3713,22.42
345.6046,21.283
345.83790000000005,20.997
346.07120000000003,21.817
346.3045,22.31
346.5378,24.657
346.77110000000005,25.713
347.00440000000003,23.907
347.2377,22.483
347.471,23.717
347.70430000000005,24.293
347.93760000000003,23.073
348.1709,22.85
348.4042,21.723
348.63750000000005,20.92
348.87080000000003,20.633
349.1041,21.253
349.3374,22.03
349.57070000000004,22.923
349.80400000000003,22.967
350.0373,22.203
350.2706,21.887
350.50390000000004,21.207
350.73720000000003,20.353
350.9705,21.24
351.20380000000006,22.83
351.43710000000004,23.337
351.67040000000003,22.287
351.9037,21.957
352.13700000000006,22.7
352.37030000000004,21.793
352.60360000000003,21.813
352.8369,22.297
353.07020000000006,22.703
353.30350000000004,23.637
353.5368,23.297
353.7701,21.373
354.00340000000006,20.777
354.23670000000004,21.087
354.47,21.82
354.7033,22.9
354.93660000000006,23.267
355.16990000000004,23.077
355.4032,21.873
355.6365,20.747
355.86980000000005,21.987
356.10310000000004,20.597
356.3364,20.65
356.5697,21.21
356.80300000000005,20.647
357.03630000000004,19.6
357.2696,19.49
357.5029,19.51
357.73620000000005,21.237
357.96950000000004,21.527
358.2028,21.93
358.4361,21.78
358.66940000000005,21.703
358.90270000000004,21.917
359.136,21.977
359.3693,21.727
359.60260000000005,21.003
359.83590000000004,20.863
360.0692,20.857
360.3025,20.893
360.53580000000005,20.833
360.76910000000004,21.19
361.0024,21.36
361.2357,21.053
361.46900000000005,20.27
361.70230000000004,20.827
361.9356,20.807
362.1689,20.547
362.40220000000005,20.273
362.63550000000004,20.443
362.8688,20.747
363.1021,21.3
363.33540000000005,22.277
363.56870000000004,21.69
363.802,21.59
364.0353,21.813
364.26860000000005,21.607
364.50190000000003,20.48
364.7352,20.027
364.9685,20.703
365.20180000000005,22.797
365.43510000000003,21.73
365.6684,20.78
365.9017,21.06
366.13500000000005,20.753
366.36830000000003,20.643
366.6016,20.477
366.8349,21.22
367.06820000000005,21.43
367.30150000000003,20.887
367.5348,20.417
367.7681,20.33
368.00140000000005,19.733
368.23470000000003,19.58
368.468,20.257
368.7013,20.49
368.93460000000005,22.397
369.16790000000003,22.52
369.4012,22.043
369.6345,21.193
369.86780000000005,20.433
370.10110000000003,20.477
370.3344,20.627
370.5677,20.657
370.80100000000004,21.433
371.03430000000003,21.62
371.2676,21.88
371.50090000000006,21.197
371.73420000000004,19.727
371.96750000000003,19.833
372.2008,20.313
372.43410000000006,20.26
372.66740000000004,21.317
372.90070000000003,20.99
373.134,20.8
373.36730000000006,21.377
373.60060000000004,20.843
373.8339,20.737
374.0672,21.223
374.30050000000006,20.14
374.53380000000004,20.327
374.7671,20.867
375.0004,20.29
375.23370000000006,19.25
375.46700000000004,18.877
375.7003,19.227
375.9336,19.59
376.16690000000006,20.007
376.40020000000004,21.347
376.6335,20.937
376.8668,20.14
377.10010000000005,19.17
377.33340000000004,18.983
377.5667,19.903
377.8,20.933
378.03330000000005,21.563
378.26660000000004,21.737
378.4999,20.677
378.7332,20.04
378.96650000000005,20.547
379.19980000000004,21.187
379.4331,20.987
379.6664,20.077
379.89970000000005,19.683
380.13300000000004,19.907
380.3663,19.77
380.5996,20.187
380.83290000000005,20.447
381.06620000000004,20.8
381.2995,21.933
381.5328,22.417
381.76610000000005,21.393
381.99940000000004,21.12
382.2327,20.663
382.466,20.633
382.69930000000005,20.55
382.93260000000004,20.18
383.1659,20.45
383.3992,21.153
383.63250000000005,21.367
383.86580000000004,21.593
384.0991,21.013
384.3324,21.733
384.56570000000005,22.59
384.79900000000004,22.047
385.0323,21.803
385.2656,21.47
385.49890000000005,20.403
385.73220000000003,19.53
385.9655,19.89
386.1988,20.75
386.43210000000005,21.343
386.66540000000003,21.2
386.8987,20.937
387.132,20.69
387.36530000000005,20.227
387.59860000000003,21.0
387.8319,21.023
388.0652,20.503
388.29850000000005,20.117
388.53180000000003,19.913
388.7651,20.27
388.9984,20.42
389.23170000000005,20.52
389.46500000000003,20.323
389.6983,20.15
389.9316,20.193
390.16490000000005,20.507
390.39820000000003,21.167
390.6315,21.44
390.86480000000006,20.907
391.09810000000004,19.703
391.33140000000003,20.873
391.5647,20.703
391.79800000000006,20.67
392.03130000000004,20.437
392.26460000000003,20.16
392.4979,20.5
392.73120000000006,20.897
392.96450000000004,20.913
393.19780000000003,19.483
393.4311,18.837
393.66440000000006,19.08
393.89770000000004,19.427
394.13100000000003,19.437
394.3643,20.37
394.59760000000006,20.893
394.83090000000004,20.023
395.0642,21.123
395.2975,21.037
395.53080000000006,20.623
395.76410000000004,20.26
395.9974,20.277
396.2307,20.847
396.46400000000006,21.27
396.69730000000004,21.163
396.9306,20.457
397.1639,20.26
397.39720000000005,20.83
397.63050000000004,21.727
397.8638,22.49
398.0971,22.807
398.33040000000005,21.873
398.56370000000004,20.173
398.797,20.43
399.0303,20.947
399.26360000000005,21.523
399.49690000000004,21.037
399.7302,20.127
399.9635,20.1
400.19680000000005,20.513
400.43010000000004,20.817
400.6634,20.71
400.8967,20.667
401.13000000000005,20.613
401.36330000000004,20.223
401.5966,19.6
401.8299,19.803
402.06320000000005,19.983
402.29650000000004,19.6
402.5298,21.217
402.7631,22.13
402.99640000000005,21.89
403.22970000000004,21.497
403.463,21.44
403.6963,20.493
403.92960000000005,19.29
404.16290000000004,19.76
404.3962,21.293
404.6295,19.117
404.86280000000005,18.247
405.09610000000004,20.607
405.3294,22.91
405.5627,22.273
405.79600000000005,20.953
406.02930000000003,21.013
406.2626,20.85
406.4959,20.01
406.72920000000005,19.71
406.96250000000003,20.113
407.1958,20.517
407.4291,21.6
407.66240000000005,21.99
407.89570000000003,21.483
408.129,22.64
408.3623,21.643
408.59560000000005,21.823
408.82890000000003,21.803
409.0622,21.277
409.2955,21.91
409.52880000000005,23.307
409.76210000000003,23.497
409.9954,24.313
410.2287,24.307
410.46200000000005,23.88
410.69530000000003,22.55
410.9286,21.56
411.16190000000006,22.283
411.39520000000005,22.88
411.62850000000003,22.503
411.8618,24.823
412.09510000000006,24.747
412.32840000000004,23.82
412.56170000000003,24.207
412.795,25.637
413.02830000000006,25.363
413.26160000000004,24.093
413.49490000000003,23.413
413.7282,26.183
413.96150000000006,26.113
414.19480000000004,25.9
414.42810000000003,25.827
414.6614,26.5
414.89470000000006,26.833
415.12800000000004,26.673
415.3613,26.33
415.5946,25.767
415.82790000000006,26.443
416.06120000000004,27.213
416.2945,27.863
416.5278,28.0
416.76110000000006,27.913
416.99440000000004,28.153
417.2277,27.933
417.461,29.917
417.69430000000006,29.143
417.92760000000004,28.513
418.1609,28.78
418.3942,28.99
418.62750000000005,28.747
418.86080000000004,28.967
419.0941,29.697
419.3274,32.203
419.56070000000005,32.747
419.79400000000004,32.967
420.0273,32.727
420.2606,32.92
420.49390000000005,33.603
420.72720000000004,34.073
420.9605,34.68
421.1938,34.9
421.42710000000005,35.843
421.66040000000004,36.883
421.8937,37.607
422.127,37.17
422.36030000000005,38.337
422.59360000000004,39.437
422.8269,38.33
423.0602,37.613
423.29350000000005,38.727
423.52680000000004,39.19
423.7601,39.503
423.9934,40.633
424.22670000000005,41.483
424.46000000000004,41.11
424.6933,41.557
424.9266,43.307
425.15990000000005,44.63
425.39320000000004,43.993
425.6265,44.313
425.8598,45.21
426.09310000000005,45.883
426.32640000000004,46.787
426.5597,47.437
426.793,48.413
427.02630000000005,49.487
427.25960000000003,50.147
427.4929,50.377
427.7262,50.27
427.95950000000005,51.377
428.19280000000003,52.243
428.4261,52.933
428.6594,53.76
428.89270000000005,54.97
429.12600000000003,56.073
429.3593,56.573
429.5926,56.04
429.82590000000005,56.43
430.05920000000003,57.05
430.2925,58.31
430.5258,59.89
430.75910000000005,59.787
430.99240000000003,59.823
431.2257,61.567
431.45900000000006,63.64
431.69230000000005,64.7
431.92560000000003,64.837
432.1589,66.517
432.39220000000006,68.32
432.62550000000005,69.443
432.85880000000003,70.54
433.0921,71.823
433.32540000000006,72.383
433.55870000000004,73.537
433.79200000000003,74.57
434.0253,75.65
434.25860000000006,77.657
434.49190000000004,78.963
434.72520000000003,79.58
434.9585,81.073
435.19180000000006,82.447
435.42510000000004,83.107
435.65840000000003,83.87
435.8917,85.75
436.12500000000006,88.863
436.35830000000004,88.737
436.5916,88.993
436.8249,91.037
437.05820000000006,92.143
437.29150000000004,92.353
437.5248,92.17
437.7581,92.627
437.99140000000006,94.067
438.22470000000004,95.39
438.458,95.387
438.6913,94.833
438.92460000000005,95.397
439.15790000000004,96.113
439.3912,96.467
439.6245,97.253
439.85780000000005,97.45
440.09110000000004,98.437
440.3244,98.887
440.5577,99.74
440.79100000000005,99.997
441.02430000000004,100.487
441.2576,101.08
441.4909,101.58
441.72420000000005,103.083
441.95750000000004,103.423
442.1908,103.21
442.4241,103.47
442.65740000000005,103.483
442.89070000000004,103.63
443.124,103.607
443.3573,103.66
443.59060000000005,103.483
443.82390000000004,103.423
444.0572,103.683
444.2905,104.197
444.52380000000005,104.22
444.75710000000004,104.02
444.9904,103.893
445.2237,104.157
445.45700000000005,105.35
445.69030000000004,104.15
445.9236,104.11
446.1569,104.787
446.39020000000005,105.263
446.62350000000004,105.383
446.8568,105.583
447.0901,105.68
447.32340000000005,106.273
447.55670000000003,106.287
447.79,106.62
448.0233,106.733
448.25660000000005,107.147
448.48990000000003,107.413
448.7232,107.46
448.9565,107.193
449.18980000000005,107.12
449.42310000000003,107.547
449.6564,107.793
449.8897,107.473
450.12300000000005,106.98
450.35630000000003,107.453
450.5896,107.7
450.82290000000006,107.287
451.05620000000005,107.027
451.28950000000003,107.747
451.5228,107.993
451.75610000000006,107.573
451.98940000000005,107.24
452.22270000000003,107.48
452.456,107.687
452.68930000000006,107.62
452.92260000000005,108.36
453.15590000000003,108.14
453.3892,108.167
453.62250000000006,108.04
453.85580000000004,107.727
454.08910000000003,108.24
454.3224,108.66
454.55570000000006,108.067
454.78900000000004,107.973
455.02230000000003,107.933
455.2556,108.0
455.48890000000006,107.933
455.72220000000004,108.18
455.95550000000003,108.447
456.1888,108.133
456.42210000000006,107.407
456.65540000000004,107.147
456.88870000000003,107.76
457.122,108.56
457.35530000000006,107.953
457.58860000000004,106.827
457.8219,107.393
458.0552,108.013
458.28850000000006,107.373
458.52180000000004,106.71
458.7551,107.507
458.9884,107.72
459.22170000000006,107.23
459.45500000000004,107.137
459.6883,107.54
459.9216,107.253
460.15490000000005,106.51
460.38820000000004,106.273
460.6215,107.06
460.8548,106.993
461.08810000000005,106.16
461.32140000000004,105.687
461.5547,106.247
461.788,106.507
462.02130000000005,106.213
462.25460000000004,105.867
462.4879,105.76
462.7212,105.947
462.95450000000005,106.02
463.18780000000004,105.437
463.4211,105.363
463.6544,105.633
463.88770000000005,105.647
464.12100000000004,105.43
464.3543,105.61
464.5876,105.71
464.82090000000005,105.697
465.05420000000004,105.423
465.2875,105.23
465.5208,105.203
465.75410000000005,105.223
465.98740000000004,105.553
466.2207,105.547
466.454,104.967
466.68730000000005,104.623
466.92060000000004,104.867
467.1539,105.073
467.3872,105.04
467.62050000000005,105.053
467.85380000000004,105.58
468.0871,105.31
468.3204,105.043
468.55370000000005,104.91
468.78700000000003,104.87
469.0203,105.037
469.2536,104.827
469.48690000000005,104.2
469.72020000000003,104.253
469.9535,104.873
470.1868,104.487
470.42010000000005,104.283
470.65340000000003,104.57
470.8867,104.277
471.12000000000006,103.423
471.35330000000005,103.457
471.58660000000003,103.33
471.8199,103.283
472.05320000000006,102.447
472.28650000000005,101.58
472.51980000000003,100.423
472.7531,102.263
472.98640000000006,104.9
473.21970000000005,106.18
473.45300000000003,109.153
473.6863,111.303
473.91960000000006,113.55
474.15290000000005,114.597
474.38620000000003,115.333
474.6195,116.74
474.85280000000006,117.633
475.08610000000004,118.03
475.31940000000003,119.547
475.5527,120.227
475.78600000000006,121.347
476.01930000000004,121.61
476.25260000000003,121.86
476.4859,123.323
476.71920000000006,123.743
476.95250000000004,123.23
477.18580000000003,123.397
477.4191,125.123
477.65240000000006,125.72
477.88570000000004,126.117
478.119,127.04
478.3523,127.74
478.58560000000006,126.473
478.81890000000004,125.677
479.0522,127.707
479.2855,128.8
479.51880000000006,129.72
479.75210000000004,128.92
479.9854,127.163
480.2187,129.54
480.45200000000006,130.76
480.68530000000004,129.91
480.9186,129.907
481.1519,131.31
481.38520000000005,131.117
481.61850000000004,130.813
481.8518,130.56
482.0851,131.097
482.31840000000005,131.36
482.55170000000004,131.817
482.785,131.81
483.0183,132.557
483.25160000000005,133.287
483.48490000000004,133.51
483.7182,132.923
483.9515,134.217
484.18480000000005,134.92
484.41810000000004,135.663
484.6514,135.77
484.8847,136.473
485.11800000000005,136.563
485.35130000000004,137.233
485.5846,136.973
485.8179,137.277
486.05120000000005,136.98
486.28450000000004,137.37
486.5178,138.32
486.7511,138.92
486.98440000000005,139.037
487.21770000000004,139.193
487.451,139.077
487.6843,140.407
487.91760000000005,140.363
488.15090000000004,140.12
488.3842,140.097
488.6175,140.947
488.85080000000005,141.213
489.08410000000003,141.427
489.3174,140.92
489.5507,141.77
489.78400000000005,142.033
490.01730000000003,141.763
490.2506,141.973
490.48390000000006,142.953
490.71720000000005,143.253
490.95050000000003,142.777
491.1838,142.037
491.41710000000006,143.26
491.65040000000005,143.223
491.88370000000003,142.373
492.117,143.163
492.35030000000006,143.333
492.58360000000005,143.383
492.81690000000003,143.997
493.0502,143.797
493.28350000000006,144.24
493.51680000000005,144.087
493.75010000000003,144.037
493.9834,144.857
494.21670000000006,144.79
494.45000000000005,144.737
494.68330000000003,145.517
494.9166,145.483
495.14990000000006,145.323
495.38320000000004,144.94
495.61650000000003,145.623
495.8498,146.523
496.08310000000006,146.42
496.31640000000004,146.123
496.54970000000003,146.79
496.783,146.84
497.01630000000006,147.023
497.24960000000004,146.813
497.48290000000003,147.02
497.7162,147.353
497.94950000000006,147.84
498.18280000000004,148.13
498.41610000000003,147.987
498.6494,147.24
498.88270000000006,148.257
499.11600000000004,148.297
499.3493,147.993
499.5826,148.543
499.81590000000006,148.33
500.04920000000004,147.807
500.2825,148.263
500.5158,148.5
500.74910000000006,148.723
500.98240000000004,148.337
501.2157,148.15
501.449,148.177
501.68230000000005,148.35
501.91560000000004,148.527
502.1489,148.83
502.3822,148.23
502.61550000000005,147.96
502.84880000000004,147.11
503.0821,147.297
503.3154,147.78
503.54870000000005,147.953
503.78200000000004,147.2
504.0153,147.123
504.2486,146.75
504.48190000000005,146.733
504.71520000000004,146.013
504.9485,145.563
505.1818,146.883
505.41510000000005,146.873
505.64840000000004,146.04
505.8817,145.497
506.115,145.48
506.34830000000005,146.287
506.58160000000004,145.703
506.8149,144.787
507.0482,145.18
507.28150000000005,144.64
507.51480000000004,143.897
507.7481,144.327
507.9814,144.527
508.21470000000005,144.73
508.44800000000004,143.52
508.6813,142.49
508.9146,143.053
509.14790000000005,143.257
509.38120000000004,143.247
509.6145,143.137
509.8478,142.863
510.08110000000005,142.87
510.31440000000003,141.977
510.5477,141.46
510.78100000000006,141.333
511.01430000000005,141.897
511.24760000000003,141.24
511.4809,140.38
511.71420000000006,139.623
511.94750000000005,140.493
512.1808,140.39
512.4141,139.517
512.6474000000001,139.307
512.8807,139.01
513.114,138.353
513.3473,138.163
513.5806,137.803
513.8139,137.663
514.0472,136.84
514.2805,136.457
514.5138000000001,136.337
514.7471,136.087
514.9804,135.443
515.2137,135.327
515.447,134.917
515.6803,134.697
515.9136,134.39
516.1469,134.293
516.3802000000001,133.78
516.6135,133.217
516.8468,132.89
517.0801,133.16
517.3134,132.733
517.5467,132.66
517.78,132.1
518.0133,131.193
518.2466000000001,131.187
518.4799,131.383
518.7132,131.027
518.9465,130.64
519.1798,129.943
519.4131,130.193
519.6464,129.833
519.8797,129.437
520.113,129.187
520.3463,129.393
520.5796,129.807
520.8129,129.893
521.0462,129.33
521.2795,129.163
521.5128,128.683
521.7461,128.25
521.9794,128.46
522.2127,128.497
522.446,127.867
522.6793,127.56
522.9126,127.303
523.1459,127.403
523.3792,126.883
523.6125,126.617
523.8458,126.473
524.0791,126.573
524.3124,126.263
524.5457,126.027
524.779,125.77
525.0123,125.913
525.2456,125.183
525.4789,124.343
525.7122,123.803
525.9455,124.833
526.1788,125.123
526.4121,124.187
526.6454,123.143
526.8787,123.927
527.112,124.11
527.3453,123.333
527.5786,122.24
527.8119,122.417
528.0452,122.347
528.2785,122.367
528.5118,122.427
528.7451,122.487
528.9784,121.91
529.2117,121.45
529.445,120.473
529.6783,121.093
529.9116,121.35
530.1449,121.09
530.3782,120.47
530.6115,120.29
530.8448,119.91
531.0781000000001,119.363
531.3114,119.53
531.5447,119.59
531.778,118.867
532.0113,118.517
532.2446,118.647
532.4779,118.637
532.7112,117.67
532.9445000000001,117.26
533.1778,117.45
533.4111,117.75
533.6444,117.51
533.8777,116.82
534.111,116.223
534.3443,116.31
534.5776,116.013
534.8109000000001,115.59
535.0442,114.767
535.2775,114.933
535.5108,114.853
535.7441,114.393
535.9774,113.687
536.2107,114.057
536.444,114.093
536.6773000000001,113.353
536.9106,113.1
537.1439,112.75
537.3772,112.963
537.6105,112.693
537.8438,111.727
538.0771,111.957
538.3104,112.473
538.5437000000001,111.823
538.777,110.353
539.0103,110.553
539.2436,110.847
539.4769,110.697
539.7102,110.64
539.9435,110.46
540.1768,110.313
540.4101,110.153
540.6434,110.003
540.8767,109.013
541.11,107.73
541.3433,108.11
541.5766,108.827
541.8099,108.297
542.0432,107.15
542.2765,106.823
542.5098,107.213
542.7431,107.04
542.9764,106.917
543.2097,106.287
543.443,105.433
543.6763,105.853
543.9096,105.89
544.1429,105.06
544.3762,104.65
544.6095,104.07
544.8428,103.637
545.0761,104.057
545.3094,104.307
545.5427,103.413
545.776,102.227
546.0093,101.977
546.2426,103.66
546.4759,102.957
546.7092,102.423
546.9425,102.413
547.1758,102.427
547.4091,102.187
547.6424,101.257
547.8757,101.057
548.109,100.793
548.3423,101.083
548.5756,100.447
548.8089,99.657
549.0422,99.43
549.2755,99.83
549.5088,99.883
549.7421,99.453
549.9754,98.83
550.2087,99.01
550.442,98.02
550.6753,97.517
550.9086,98.08
551.1419,98.28
551.3752000000001,97.473
551.6085,96.73
551.8418,97.517
552.0751,96.873
552.3084,96.75
552.5417,97.067
552.775,97.353
553.0083,97.253
553.2416000000001,96.767
553.4749,96.083
553.7082,96.513
553.9415,96.083
554.1748,96.013
554.4081,95.903
554.6414,95.52
554.8747,95.433
555.1080000000001,95.353
555.3413,95.237
555.5746,94.28
555.8079,94.117
556.0412,94.46
556.2745,93.92
556.5078,92.68
556.7411,93.727
556.9744000000001,94.647
557.2077,93.69
557.441,93.517
557.6743,94.627
557.9076,94.723
558.1409,93.54
558.3742,93.26
558.6075,94.35
558.8408000000001,94.543
559.0741,93.74
559.3074,93.527
559.5407,93.037
559.774,93.097
560.0073,93.687
560.2406,93.497
560.4739,93.407
560.7072000000001,93.103
560.9405,92.583
561.1738,93.147
561.4071,93.823
561.6404,93.84
561.8737,93.083
562.107,92.797
562.3403,93.107
562.5736,93.193
562.8069,93.023
563.0402,93.363
563.2735,92.92
563.5068,93.48
563.7401,93.837
563.9734,92.943
564.2067,93.03
564.44,93.66
564.6733,93.303
564.9066,93.683
565.1399,93.757
565.3732,93.68
565.6065,93.55
565.8398,93.783
566.0731,94.127
566.3064,94.067
566.5397,93.997
566.773,94.343
567.0063,94.44
567.2396,94.483
567.4729,94.293
567.7062,94.2
567.9395,94.603
568.1728,94.783
568.4061,94.247
568.6394,95.387
568.8727,95.973
569.106,96.017
569.3393,95.473
569.5726,95.203
569.8059,95.977
570.0392,96.487
570.2725,96.02
570.5058,97.247
570.7391,98.49
570.9724,98.93
571.2057,98.423
571.439,98.607
571.6723000000001,99.517
571.9056,99.72
572.1389,98.883
572.3722,99.84
572.6055,99.97
572.8388,100.543
573.0721,102.027
573.3054,103.343
573.5387000000001,104.5
573.772,105.497
574.0053,106.567
574.2386,107.993
574.4719,107.747
574.7052,108.757
574.9385,111.17
575.1718,112.51
575.4051000000001,112.477
575.6384,112.587
575.8717,113.927
576.105,116.74
576.3383,116.733
576.5716,118.07
576.8049,119.923
577.0382,121.33
577.2715000000001,122.823
577.5048,124.37
577.7381,125.463
577.9714,127.883
578.2047,129.4
578.438,130.58
578.6713,131.38
578.9046,131.923
579.1379000000001,132.703
579.3712,132.56
579.6045,132.767
579.8378,134.297
580.0711,134.2
580.3044,134.183
580.5377,134.96
580.771,135.633
581.0043000000001,136.93
581.2376,137.453
581.4709,137.033
581.7042,137.197
581.9375,137.3
582.1708,137.69
582.4041,138.597
582.6374,138.727
582.8707,138.157
583.104,138.157
583.3373,138.513
583.5706,138.73
583.8039,138.833
584.0372,138.993
584.2705000000001,138.957
584.5038000000001,139.277
584.7371,139.607
584.9704,139.38
585.2037,138.627
585.437,140.083
585.6703,139.74
585.9036,139.623
586.1369000000001,139.803
586.3702000000001,140.62
586.6035,140.277
586.8368,139.8
587.0701,139.6
587.3034,139.877
587.5367,139.537
587.77,139.433
588.0033000000001,139.48
588.2366000000001,139.943
588.4699,139.7
588.7032,139.167
588.9365,138.353
589.1698,138.99
589.4031,138.703
589.6364,139.137
589.8697000000001,139.057
590.1030000000001,138.567
590.3363,138.097
590.5696,137.72
590.8029,137.633
591.0362,137.623
591.2695,137.323
591.5028000000001,137.173
591.7361000000001,136.793
591.9694000000001,136.183
592.2027,135.483
592.436,135.553
592.6693,135.27
592.9026,135.793
593.1359,134.86
593.3692000000001,134.64
593.6025000000001,134.0
593.8358000000001,133.863
594.0691,134.443
594.3024,134.563
594.5357,133.26
594.769,132.567
595.0023,132.603
595.2356000000001,132.983
595.4689000000001,132.813
595.7022000000001,131.877
595.9355,130.473
596.1688,130.4
596.4021,130.693
596.6354,131.493
596.8687,130.383
597.1020000000001,129.563
597.3353000000001,129.813
597.5686000000001,129.387
597.8019,128.667
598.0352,128.85
598.2685,128.593
598.5018,128.583
598.7351,128.06
598.9684000000001,128.113
599.2017000000001,128.103
599.4350000000001,127.823
599.6683,127.993
599.9016,128.163
600.1349,126.927
600.3682,127.12
600.6015,127.13
600.8348000000001,127.237
601.0681000000001,126.413
601.3014000000001,125.833
601.5347,126.113
601.768,126.383
602.0013,126.01
602.2346,125.737
602.4679,125.407
602.7012000000001,125.003
602.9345000000001,124.78
603.1678,125.457
603.4011,125.303
603.6344,125.033
603.8677,124.45
604.101,124.403
604.3343,124.643
604.5676000000001,124.083
604.8009000000001,123.68
605.0342,123.717
605.2675,123.22
605.5008,123.393
605.7341,122.947
605.9674,122.853
606.2007,122.487
606.4340000000001,122.093
606.6673000000001,121.833
606.9006,121.793
607.1339,121.873
607.3672,122.247
607.6005,121.28
607.8338,120.923
608.0671,121.497
608.3004000000001,121.423
608.5337000000001,120.297
608.767,120.183
609.0003,120.76
609.2336,120.783
609.4669,120.027
609.7002,119.513
609.9335000000001,119.6
610.1668000000001,120.027
610.4001000000001,119.527
610.6334,118.823
610.8667,119.653
611.1,120.33
611.3333,119.063
611.5666,118.857
611.7999000000001,118.403
612.0332000000001,118.913
612.2665000000001,119.233
612.4998,119.267
612.7331,119.127
612.9664,118.84
613.1997,117.99
613.433,118.033
613.6663000000001,118.903
613.8996000000001,119.127
614.1329000000001,117.793
614.3662,117.023
614.5995,118.333
614.8328,118.94
615.0661,117.487
615.2994,116.887
615.5327000000001,117.743
615.7660000000001,118.313
615.9993000000001,117.163
616.2326,116.57
616.4659,117.173
616.6992,117.82
616.9325,117.457
617.1658,117.05
617.3991000000001,117.037
617.6324000000001,116.953
617.8657000000001,116.593
618.099,116.78
618.3323,117.05
618.5656,117.083
618.7989,116.477
619.0322,116.943
619.2655000000001,116.94
619.4988000000001,116.433
619.7321000000001,115.357
619.9654,115.003
620.1987,116.513
620.432,116.813
620.6653,115.41
620.8986,115.18
621.1319000000001,116.23
621.3652000000001,116.007
621.5985000000001,116.293
621.8318,117.703
622.0651,116.91
622.2984,115.357
622.5317,115.103
622.765,116.423
622.9983000000001,116.013
623.2316000000001,115.893
623.4649000000001,115.763
623.6982,115.66
623.9315,115.73
624.1648,115.963
624.3981,115.887
624.6314,116.42
624.8647000000001,116.157
625.0980000000001,115.36
625.3313,115.29
625.5646,115.513
625.7979,115.343
626.0312,115.067
626.2645,115.427
626.4978,115.177
626.7311000000001,114.837
626.9644000000001,114.78
627.1977,114.5
627.431,113.957
627.6643,113.937
627.8976,114.167
628.1309,114.1
628.3642,114.28
628.5975000000001,114.963
628.8308000000001,115.417
629.0641,114.487
629.2974,113.52
629.5307,113.62
629.764,113.973
629.9973,113.933
630.2306000000001,113.443
630.4639000000001,112.753
630.6972000000001,112.597
630.9305,113.337
631.1638,114.08
631.3971,113.84
631.6304,112.897
631.8637,112.27
632.0970000000001,112.967
632.3303000000001,112.823
632.5636000000001,112.54
632.7969,112.743
633.0302,112.947
633.2635,112.887
633.4968,112.577
633.7301,112.057
633.9634000000001,112.467
634.1967000000001,111.277
634.4300000000001,111.017
634.6633,111.417
634.8966,111.787
635.1299,111.81
635.3632,111.41
635.5965,110.49
635.8298000000001,111.573
636.0631000000001,110.647
636.2964000000001,109.787
636.5297,109.527
636.763,109.98
636.9963,110.04
637.2296,109.81
637.4629,109.29
637.6962000000001,109.35
637.9295000000001,109.37
638.1628000000001,109.11
638.3961,108.88
638.6294,109.073
638.8627,108.553
639.096,107.59
639.3293,107.28
639.5626000000001,108.013
639.7959000000001,108.51
640.0292000000001,108.057
640.2625,107.507
640.4958,107.89
640.7291,107.85
640.9624,107.09
641.1957,106.09
641.4290000000001,106.34
641.6623000000001,106.66
641.8956000000001,107.347
642.1289,106.883
642.3622,105.933
642.5955,106.423
642.8288,106.8
643.0621,105.857
643.2954000000001,105.13
643.5287000000001,104.847
643.7620000000001,104.49
643.9953,104.66
644.2286,104.75
644.4619,104.667
644.6952,103.847
644.9285,103.037
645.1618000000001,102.877
645.3951000000001,102.47
645.6284,101.917
645.8617,101.977
646.095,102.453
646.3283,102.493
646.5616,101.81
646.7949,101.337
647.0282000000001,101.63
647.2615000000001,101.17
647.4948,99.993
647.7281,98.567
647.9614,96.89
648.1947,97.31
648.428,97.453
648.6613,94.803
648.8946000000001,93.57
649.1279000000001,93.35
649.3612,92.663
649.5945,91.157
649.8278,89.627
650.0611,89.983
650.2944,90.833
650.5277000000001,90.94
650.7610000000001,90.213
650.9943000000001,89.447
651.2276,88.86
651.4609,88.92
651.6942,88.963
651.9275,88.983
652.1608,88.4
652.3941000000001,87.527
652.6274000000001,87.683
652.8607000000001,86.673
653.094,86.09
653.3273,85.14
653.5606,83.773
653.7939,83.443
654.0272,82.573
654.2605000000001,80.827
654.4938000000001,78.397
654.7271000000001,78.043
654.9604,78.313
655.1937,77.463
655.427,75.963
655.6603,76.127
655.8936,75.64
656.1269000000001,73.74
656.3602000000001,73.24
656.5935000000001,73.937
656.8268,73.597
657.0601,72.16
657.2934,70.277
657.5267,70.04
657.76,70.26
657.9933000000001,70.443
658.2266000000001,69.393
658.4599000000001,69.07
658.6932,68.173
658.9265,66.993
659.1598,66.867
659.3931,66.647
659.6264,65.977
659.8597000000001,65.7
660.0930000000001,65.333
660.3263000000001,65.467
660.5596,65.213
660.7929,64.057
661.0262,62.993
661.2595,63.883
661.4928,63.653
661.7261000000001,61.97
661.9594000000001,61.553
662.1927000000001,60.413
662.426,59.917
662.6593,60.687
662.8926,60.387
663.1259,58.563
663.3592,57.493
663.5925000000001,57.977
663.8258000000001,58.503
664.0591000000001,56.447
664.2924,55.373
664.5257,55.747
664.759,55.32
664.9923,55.08
665.2256,54.223
665.4589000000001,53.04
665.6922000000001,53.793
665.9255,53.21
666.1588,51.113
666.3921,50.137
666.6254,50.607
666.8587,50.077
667.092,48.77
667.3253000000001,49.03
667.5586000000001,48.987
667.7919,47.827
668.0252,46.187
668.2585,46.66
668.4918,46.233
668.7251,45.783
668.9584,45.343
669.1917000000001,44.743
669.4250000000001,43.533
669.6583,43.49
669.8916,43.623
670.1249,44.083
670.3582,43.14
670.5915,41.55
670.8248000000001,40.603
671.0581000000001,40.4
671.2914000000001,39.863
671.5247,39.46
671.758,39.267
671.9913,39.517
672.2246,39.397
672.4579,39.257
672.6912000000001,38.087
672.9245000000001,36.463
673.1578000000001,36.63
673.3911,34.947
673.6244,35.283
673.8577,37.007
674.091,37.04
674.3243,36.49
674.5576000000001,35.477
674.7909000000001,34.373
675.0242000000001,35.017
675.2575,34.837
675.4908,34.71
675.7241,34.893
675.9574,34.217
676.1907,33.087
676.4240000000001,32.373
676.6573000000001,32.867
676.8906000000001,33.713
677.1239,33.447
677.3572,31.817
677.5905,31.79
677.8238,32.103
678.0571,32.12
678.2904000000001,32.17
678.5237000000001,31.66
678.7570000000001,30.823
678.9903,30.723
679.2236,30.663
679.4569,30.643
679.6902,30.47
679.9235,30.66
680.1568000000001,30.527
680.3901000000001,29.817
680.6234000000001,29.74
680.8567,29.96
681.09,29.737
681.3233,29.667
681.5566,29.153
681.7899,28.923
682.0232000000001,29.163
682.2565000000001,29.907
682.4898000000001,30.2
682.7231,30.02
682.9564,29.293
683.1897,28.84
683.423,29.11
683.6563,29.903
683.8896000000001,29.903
684.1229000000001,29.277
684.3562000000001,29.443
684.5895,29.29
684.8228,29.183
685.0561,30.447
685.2894,31.373
685.5227,29.943
685.7560000000001,28.64
685.9893000000001,29.597
686.2226,31.463
686.4559,31.03
686.6892,30.747
686.9225,31.71
687.1558,33.053
687.3891,33.347
687.6224000000001,33.213
687.8557000000001,33.967
688.089,35.1
688.3223,35.477
688.5556,36.46
688.7889,37.41
689.0222,38.377
689.2555,39.763
689.4888000000001,41.7
689.7221000000001,43.127
689.9554,44.587
690.1887,46.277
690.422,47.553
690.6553,48.637
690.8886,50.623
691.1219000000001,51.827
691.3552000000001,52.307
691.5885000000001,53.163
691.8218,56.88
692.0551,59.48
692.2884,61.787
692.5217,64.943
692.755,68.84
692.9883000000001,71.193
693.2216000000001,72.577
693.4549000000001,75.02
693.6882,76.647
693.9215,78.107
694.1548,80.687
694.3881,82.037
694.6214,82.513
694.8547000000001,84.663
695.0880000000001,86.367
695.3213000000001,86.07
695.5546,88.093
695.7879,88.12
696.0212,87.91
696.2545,88.65
696.4878,89.513
696.7211000000001,90.403
696.9544000000001,91.137
697.1877000000001,90.057
697.421,90.113
697.6543,91.203
697.8876,94.267
698.1209,95.47
698.3542,96.017
698.5875000000001,98.297
698.8208000000001,98.443
699.0541000000001,96.703
699.2874,96.777
699.5207,99.107
699.754,100.25
699.9873,99.64
700.2206,98.96
700.4539000000001,98.98
700.6872000000001,100.417
700.9205000000001,102.577
701.1538,102.483
701.3871,102.003
701.6204,102.477
701.8537,104.087
702.087,104.22
702.3203000000001,104.3
702.5536000000001,105.4
702.7869000000001,104.68
703.0202,106.143
703.2535,108.353
703.4868,108.46
703.7201,108.49
703.9534,108.593
704.1867000000001,109.173
704.4200000000001,110.243
704.6533000000001,110.153
704.8866,111.46
705.1199,113.12
705.3532,113.967
705.5865,113.4
705.8198,112.89
706.0531000000001,113.863
706.2864000000001,114.467
706.5197000000001,114.447
706.753,115.377
706.9863,115.707
707.2196,116.373
707.4529,116.273
707.6862,116.477
707.9195000000001,117.357
708.1528000000001,118.123
708.3861,117.863
708.6194,118.627
708.8527,119.027
709.086,119.663
709.3193,119.903
709.5526000000001,119.82
709.7859000000001,119.71
710.0192000000001,120.107
710.2525,120.677
710.4858,120.463
710.7191,120.213
710.9524,120.603
711.1857,120.763
711.4190000000001,120.483
711.6523000000001,120.943
711.8856000000001,121.463
712.1189,121.033
712.3522,121.043
712.5855,121.183
712.8188,121.803
713.0521,122.123
713.2854000000001,121.353
713.5187000000001,121.063
713.7520000000001,121.463
713.9853,121.703
714.2186,122.633
714.4519,121.143
714.6852,120.823
714.9185,122.273
715.1518000000001,123.043
715.3851000000001,121.983
715.6184000000001,121.477
715.8517,122.077
716.085,122.71
716.3183,121.78
716.5516,121.58
716.7849,121.84
717.0182000000001,121.993
717.2515000000001,122.513
717.4848000000001,122.643
717.7181,121.817
717.9514,121.043
718.1847,122.25
718.418,123.003
718.6513,122.433
718.8846000000001,121.507
719.1179000000001,121.927
719.3512000000001,122.83
719.5845,123.21
719.8178,121.883
720.0511,121.373
720.2844,121.733
720.5177,122.093
720.7510000000001,122.413
720.9843000000001,123.593
721.2176000000001,123.693
721.4509,121.823
721.6842,121.133
721.9175,120.883
722.1508,122.25
722.3841,123.33
722.6174000000001,122.727
722.8507000000001,122.977
723.0840000000001,122.943
723.3173,121.583
723.5506,121.137
723.7839,122.147
724.0172,122.443
724.2505,121.933
724.4838000000001,121.963
724.7171000000001,122.363
724.9504000000001,122.483
725.1837,122.203
725.417,122.06
725.6503,121.89
725.8836,122.077
726.1169,122.547
726.3502000000001,122.177
726.5835000000001,121.017
726.8168000000001,120.487
727.0501,121.047
727.2834,122.027
727.5167,122.707
727.75,121.567
727.9833,121.237
728.2166000000001,121.147
728.4499000000001,121.507
728.6832,122.187
728.9165,120.847
729.1498,121.327
729.3831,121.387
729.6164,121.737
729.8497000000001,121.387
730.0830000000001,120.667
730.3163000000001,120.797
730.5496,120.677
730.7829,119.997
731.0162,120.497
731.2495,121.887
731.4828,121.987
731.7161000000001,120.537
731.9494000000001,119.72
732.1827000000001,120.14
732.416,120.383
732.6493,120.183
732.8826,120.857
733.1159,120.007
733.3492,118.707
733.5825000000001,119.497
733.8158000000001,120.243
734.0491000000001,120.283
734.2824,120.243
734.5157,119.493
734.749,119.573
734.9823,120.053
735.2156,119.753
735.4489000000001,118.673
735.6822000000001,118.46
735.9155000000001,119.61
736.1488,119.767
736.3821,118.547
736.6154,118.653
736.8487,118.653
737.082,119.113
737.3153000000001,119.053
737.5486000000001,119.147
737.7819000000001,119.797
738.0152,119.317
738.2485,117.377
738.4818,117.957
738.7151,118.027
738.9484,119.307
739.1817000000001,119.307
739.4150000000001,117.957
739.6483000000001,118.067
739.8816,118.557
740.1149,117.597
740.3482,118.893
740.5815,118.103
740.8148,118.327
741.0481000000001,118.627
741.2814000000001,117.93
741.5147000000001,117.56
741.748,118.033
741.9813,118.283
742.2146,117.81
742.4479,117.63
742.6812,117.493
742.9145000000001,117.103
743.1478000000001,116.327
743.3811000000001,116.633
743.6144,117.577
743.8477,117.92
744.081,116.75
744.3143,116.01
744.5476,116.58
744.7809000000001,117.05
745.0142000000001,116.11
745.2475000000001,115.4
745.4808,115.88
745.7141,116.29
745.9474,117.487
746.1807,116.133
746.414,115.783
746.6473000000001,115.98
746.8806000000001,114.623
747.1139000000001,114.483
747.3472,116.133
747.5805,115.573
747.8138,114.98
748.0471,115.54
748.2804,115.467
748.5137000000001,114.627
748.7470000000001,114.22
748.9803,114.09
749.2136,113.993
749.4469,113.283
749.6802,114.783
749.9135,115.143
750.1468000000001,114.013
750.3801000000001,113.413
750.6134000000001,113.383
750.8467,112.853
751.08,113.097
751.3133,112.93
751.5466,113.617
751.7799,113.297
752.0132000000001,112.827
752.2465000000001,112.417
752.4798000000001,112.877
752.7131,113.547
752.9464,112.767
753.1797,110.777
753.413,111.67
753.6463,111.79
753.8796000000001,111.947
754.1129000000001,111.607
754.3462000000001,110.903
754.5795,110.743
754.8128,110.627
755.0461,110.337
755.2794,110.36
755.5127,110.643
755.7460000000001,110.513
755.9793000000001,109.383
756.2126000000001,108.54
756.4459,109.03
756.6792,109.147
756.9125,108.307
757.1458,107.64
757.3791,108.2
757.6124000000001,108.343
757.8457000000001,107.533
758.0790000000001,106.68
758.3123,106.14
758.5456,106.157
758.7789,106.367
759.0122,105.32
759.2455,105.327
759.4788000000001,106.243
759.7121000000001,106.413
759.9454000000001,105.32
760.1787,105.3
760.412,105.093
760.6453,103.643
760.8786,103.213
761.1119,104.193
761.3452000000001,105.177
761.5785000000001,104.547
761.8118000000001,103.163
762.0451,103.363
762.2784,103.693
762.5117,102.797
762.745,102.393
762.9783,102.433
763.2116000000001,102.76
763.4449000000001,102.12
763.6782000000001,101.807
763.9115,103.457
764.1448,103.463
764.3781,100.933
764.6114,100.01
764.8447,101.04
765.0780000000001,101.987
765.3113000000001,101.347
765.5446000000001,100.337
765.7779,100.687
766.0112,100.243
766.2445,98.993
766.4778,99.073
766.7111,99.813
766.9444000000001,101.057
767.1777000000001,99.307
767.4110000000001,96.35
767.6443,97.43
767.8776,99.383
768.1109,98.353
768.3442,97.69
768.5775,98.2
768.8108000000001,97.773
769.0441000000001,96.813
769.2774000000001,96.56
769.5107,96.95
769.744,96.373
769.9773,95.263
770.2106,95.723
770.4439000000001,96.013
770.6772000000001,95.767
770.9105000000001,94.867
771.1438,94.32
771.3771,95.01
771.6104,95.25
771.8437,94.37
772.077,93.677
772.3103000000001,92.857
772.5436000000001,93.72
772.7769000000001,94.08
773.0102,92.537
773.2435,92.307
773.4768,93.067
773.7101,92.643
773.9434,91.663
774.1767000000001,91.087
774.4100000000001,90.797
774.6433000000001,91.047
774.8766,91.65
775.1099,91.61
775.3432,90.277
775.5765,88.727
775.8098,89.247
776.0431000000001,90.087
776.2764000000001,89.943
776.5097000000001,89.013
776.743,88.58
776.9763,88.273
777.2096,87.58
777.4429,87.083
777.6762,87.017
777.9095000000001,86.43
778.1428000000001,85.857
778.3761000000001,85.407
778.6094,84.533
778.8427,84.893
779.076,85.187
779.3093,82.75
779.5426,83.273
779.7759000000001,83.773
780.0092000000001,83.393
780.2425000000001,83.203
780.4758,82.63
780.7091,81.793
780.9424,81.873
781.1757,81.317
781.409,81.85
781.6423000000001,80.797
781.8756000000001,79.14
782.1089000000001,79.797
782.3422,81.27
782.5755,80.313
782.8088,78.773
783.0421,78.023
783.2754,79.213
783.5087000000001,79.413
783.7420000000001,78.307
783.9753000000001,77.327
784.2086,76.927
784.4419,76.777
784.6752,77.323
784.9085,76.767
785.1418,76.017
785.3751000000001,76.337
785.6084000000001,76.157
785.8417000000001,75.117
786.075,74.957
786.3083,75.567
786.5416,75.103
786.7749,73.603
787.0082,74.527
787.2415000000001,74.027
787.4748000000001,73.103
787.7081000000001,73.223
787.9414,73.34
788.1747,72.79
788.408,72.22
788.6413,72.98
788.8746,73.263
789.1079000000001,71.85
789.3412000000001,70.82
789.5745000000001,71.36
789.8078,72.71
790.0411,73.09
790.2744,72.01
790.5077,70.53
790.7410000000001,70.11
790.9743000000001,68.02
791.2076000000001,65.51
791.4409,64.39
791.6742,63.897
791.9075,62.597
792.1408,60.547
792.3741,59.287
792.6074000000001,59.333
792.8407000000001,56.53
793.0740000000001,54.763
793.3073,53.38
793.5406,50.443
793.7739,47.683
794.0072,46.79
794.2405,46.31
794.4738000000001,45.667
794.7071000000001,45.527
794.9404000000001,44.457
795.1737,43.583
795.407,43.41
795.6403,42.683
795.8736,41.683
796.1069,41.587
796.3402000000001,41.79
796.5735000000001,40.83
796.8068000000001,39.913
797.0401,40.287
797.2734,39.26
797.5067,39.07
797.74,40.167
797.9733,38.507
798.2066000000001,37.23
798.4399000000001,37.143
798.6732000000001,37.863
798.9065,38.167
799.1398,36.743
799.3731,35.937
799.6064,35.607
799.8397,34.613
800.0730000000001,34.73
800.3063000000001,34.52
800.5396000000001,34.687
800.7729,33.673
801.0062,32.653
801.2395,33.83
801.4728,34.783
801.7061,33.38
801.9394000000001,32.29
802.1727000000001,32.657
802.4060000000001,32.347
802.6393,31.993
802.8726,31.503
803.1059,30.65
803.3392,29.743
803.5725,29.84
803.8058000000001,31.517
804.0391000000001,31.317
804.2724000000001,30.52
804.5057,29.88
804.739,29.883
804.9723,30.387
805.2056,29.887
805.4389,28.767
805.6722000000001,29.237
805.9055000000001,29.203
806.1388000000001,28.86
806.3721,28.697
806.6054,28.467
806.8387,28.1
807.072,27.537
807.3053,27.42
807.5386000000001,27.717
807.7719000000001,27.75
808.0052000000001,27.067
808.2385,26.247
808.4718,26.147
808.7051,26.823
808.9384,26.493
809.1717000000001,25.787
809.4050000000001,25.3
809.6383000000001,24.707
809.8716000000001,24.757
810.1049,24.987
810.3382,24.707
810.5715,24.797
810.8048,24.093
811.0381000000001,22.683
811.2714000000001,23.837
811.5047000000001,24.557
811.738,24.327
811.9713,23.517
812.2046,22.99
812.4379,23.74
812.6712,23.73
812.9045000000001,22.917
813.1378000000001,23.1
813.3711000000001,22.393
813.6044,22.153
813.8377,23.187
814.071,24.443
814.3043,24.497
814.5376,22.763
814.7709000000001,21.35
815.0042000000001,20.487
815.2375000000001,21.333
815.4708,21.913
815.7041,22.013
815.9374,22.273
816.1707,22.643
816.404,22.273
816.6373000000001,21.31
816.8706000000001,21.217
817.1039000000001,20.027
817.3372,19.623
817.5705,19.713
817.8038,19.713
818.0371,20.743
818.2704,21.513
818.5037000000001,21.017
818.7370000000001,20.057
818.9703000000001,20.487
819.2036,20.51
819.4369,19.743
819.6702,18.85
819.9035,19.03
820.1368,19.283
820.3701000000001,19.163
820.6034000000001,20.677
820.8367000000001,20.193
821.07,18.953
821.3033,19.143
821.5366,19.817
821.7699,19.163
822.0032,18.413
822.2365000000001,19.507
822.4698000000001,21.197
822.7031000000001,20.46
822.9364,18.51
823.1697,18.533
823.403,18.587
823.6363,18.417
823.8696,19.243
824.1029000000001,19.743
824.3362000000001,19.853
824.5695000000001,19.88
824.8028,19.347
825.0361,19.467
825.2694,18.58
825.5027,17.587
825.736,17.88
825.9693000000001,18.367
826.2026000000001,18.34
826.4359000000001,18.71
826.6692,18.3
826.9025,17.19
827.1358,17.19
827.3691,17.91
827.6024,18.457
827.8357000000001,18.377
828.0690000000001,18.323
828.3023000000001,18.097
828.5356,18.08
828.7689,17.71
829.0022,17.343
829.2355,18.277
829.4688000000001,18.62
829.7021000000001,17.873
829.9354000000001,16.76
830.1687000000001,18.08
830.402,18.697
830.6353,17.747
830.8686,16.6
831.1019,16.837
831.3352000000001,16.93
831.5685000000001,16.54
831.8018000000001,16.593
832.0351,17.53
832.2684,17.907
832.5017,17.04
832.735,16.153
832.9683,16.823
833.2016000000001,16.567
833.4349000000001,14.867
833.6682000000001,14.167
833.9015,14.87
834.1348,15.59
834.3681,16.343
834.6014,17.147
834.8347,17.6
835.0680000000001,17.217
835.3013000000001,16.487
835.5346000000001,15.05
835.7679,13.41
836.0012,12.83
836.2345,14.393
836.4678,16.267
836.7011,16.437
836.9344000000001,15.373
837.1677000000001,14.617
837.4010000000001,14.427
837.6343,14.817
837.8676,15.617
838.1009,15.713
838.3342,14.85
838.5675,14.413
838.8008000000001,14.287
839.0341000000001,13.6
839.2674000000001,13.65
839.5007,13.72
839.734,13.81
839.9673,13.577
840.2006,13.08
840.4339,13.837
840.6672000000001,14.06
840.9005000000001,12.547
841.1338000000001,12.713
841.3671,12.233
841.6004,12.38
841.8337,12.58
842.067,12.473
842.3003,13.08
842.5336000000001,13.457
842.7669000000001,13.113
843.0002000000001,13.287
843.2335,12.953
843.4668,12.483
843.7001,12.3
843.9334,12.477
844.1667,12.693
844.4000000000001,12.617
844.6333000000001,12.61
844.8666000000001,12.32
845.0999,12.867
845.3332,13.207
845.5665,12.877
845.7998,12.04
846.0331,11.32
846.2664000000001,11.113
846.4997000000001,11.16
846.7330000000001,12.273
846.9663,12.637
847.1996,12.373
847.4329,11.76
847.6662,11.76
847.8995,12.3
848.1328000000001,12.72
848.3661000000001,12.813
848.5994000000001,12.407
848.8327,13.11
849.066,13.09
849.2993,12.347
849.5326,11.973
849.7659000000001,12.423
849.9992000000001,12.527
850.2325000000001,12.623
850.4658000000001,11.6
850.6991,12.363
850.9324,12.617
851.1657,12.373
851.399,11.877
851.6323000000001,11.977
851.8656000000001,12.173
852.0989000000001,12.4
852.3322000000001,13.237
852.5655,13.027
852.7988,12.87
853.0321,12.783
853.2654,12.41
853.4987000000001,12.543
853.7320000000001,12.16
853.9653000000001,11.307
854.1986,10.587
854.4319,10.037
854.6652,10.287
854.8985,11.563
855.1318,12.577
855.3651000000001,13.167
855.5984000000001,12.737
855.8317000000001,11.967
856.065,11.643
856.2983,11.443
856.5316,11.45
856.7649,11.58
856.9982,11.357
857.2315000000001,11.02
857.4648000000001,10.843
857.6981000000001,10.997
857.9314,11.583
858.1647,11.84
858.398,12.32
858.6313,12.44
858.8646,12.233
859.0979000000001,11.863
859.3312000000001,11.3
859.5645000000001,11.023
859.7978,11.143
860.0311,10.797
860.2644,10.63
860.4977,10.51
860.731,10.343
860.9643000000001,10.203
861.1976000000001,10.24
861.4309000000001,10.37
861.6642,11.067
861.8975,9.69
862.1308,9.56
862.3641,10.803
862.5974,11.23
862.8307000000001,10.507
863.0640000000001,10.27
863.2973000000001,10.52
863.5306,10.383
863.7639,10.343
863.9972,9.667
864.2305,9.003
864.4638,9.107
864.6971000000001,9.64
864.9304000000001,9.853
865.1637000000001,9.713
865.397,9.43
865.6303,9.98
865.8636,10.277
866.0969,9.733
866.3302,8.64
866.5635000000001,8.813
866.7968000000001,9.18
867.0301000000001,9.173
867.2634,9.017
867.4967,9.023
867.73,9.52
867.9633,9.65
868.1966,9.54
868.4299000000001,10.627
868.6632000000001,10.847
868.8965000000001,9.4
869.1298,9.327
869.3631,9.597
869.5964,9.71
869.8297,9.787
870.0630000000001,10.1
870.2963000000001,10.163
870.5296000000001,9.413
870.7629000000001,8.333
870.9962,8.937
871.2295,9.267
871.4628,8.98
871.6961,8.097
871.9294000000001,8.077
872.1627000000001,8.873
872.3960000000001,9.613
872.6293000000001,9.58
872.8626,9.54
873.0959,9.243
873.3292,8.963
873.5625,8.583
873.7958000000001,7.963
874.0291000000001,7.78
874.2624000000001,8.01
874.4957,8.157
874.729,7.927
874.9623,8.29
875.1956,8.497
875.4289,8.517
875.6622000000001,9.063
875.8955000000001,10.467
876.1288000000001,10.633
876.3621,10.23
876.5954,9.127
876.8287,8.48
877.062,8.22
877.2953,8.47
877.5286000000001,8.767
877.7619000000001,8.923
877.9952000000001,9.157
878.2285,9.693
878.4618,9.623
878.6951,9.52
878.9284,9.63
879.1617,9.333
879.3950000000001,8.967
879.6283000000001,9.13
879.8616000000001,9.003
880.0949,8.383
880.3282,9.467
880.5615,9.827
880.7948,9.667
881.0281,9.463
881.2614000000001,9.67
881.4947000000001,9.69
881.7280000000001,8.967
881.9613,8.213
882.1946,7.557
882.4279,7.973
882.6612,8.123
882.8945,8.387
883.1278000000001,8.937
883.3611000000001,9.707
883.5944000000001,10.073
883.8277,9.943
884.061,8.693
884.2943,8.343
884.5276,8.35
884.7609,8.317
884.9942000000001,7.81
885.2275000000001,7.213
885.4608000000001,7.613
885.6941,8.527
885.9274,9.967
886.1607,9.707
886.394,9.433
886.6273,9.327
886.8606000000001,8.837
887.0939000000001,9.0
887.3272000000001,9.117
887.5605,8.53
887.7938,7.96
888.0271,8.347
888.2604,8.56
888.4937000000001,8.233
888.7270000000001,7.767
888.9603000000001,7.64
889.1936000000001,7.277
889.4269,7.013
889.6602,7.823
889.8935,8.797
890.1268,9.177
890.3601000000001,9.09
890.5934000000001,8.66
890.8267000000001,8.68
891.0600000000001,8.827
891.2933,9.017
891.5266,8.107
891.7599,7.093
891.9932,6.35
892.2265000000001,6.92
892.4598000000001,8.113
892.6931000000001,8.813
892.9264000000001,8.36
893.1597,7.843
893.393,7.023
893.6263,7.163
893.8596,7.393
894.0929000000001,7.833
894.3262000000001,8.057
894.5595000000001,8.413
894.7928,8.093
895.0261,7.17
895.2594,6.99
895.4927,7.243
895.726,7.587
895.9593000000001,7.483
896.1926000000001,7.147
896.4259000000001,7.683
896.6592,8.197
896.8925,7.803
897.1258,7.357
897.3591,6.943
897.5924,7.14
897.8257000000001,7.483
898.0590000000001,7.753
898.2923000000001,8.137
898.5256,8.027
898.7589,7.677
898.9922,8.553
899.2255,7.553
899.4588,7.513
899.6921000000001,8.407
899.9254000000001,8.623
900.1587000000001,7.767
900.392,7.61
900.6253,8.25
900.8586,8.06
901.0919,7.397
901.3252,7.577
901.5585000000001,7.917
901.7918000000001,7.843
902.0251000000001,7.977
902.2584,8.333
902.4917,7.843
902.725,8.587
902.9583,8.557
903.1916,8.22
903.4249000000001,7.353
903.6582000000001,6.82
903.8915000000001,6.823
904.1248,7.4
904.3581,7.73
904.5914,7.53
904.8247,7.767
905.058,7.987
905.2913000000001,8.017
905.5246000000001,7.897
905.7579000000001,7.557
905.9912,6.883
906.2245,6.387
906.4578,7.033
906.6911,6.217
906.9244,6.423
907.1577000000001,6.967
907.3910000000001,7.22
907.6243000000001,7.357
907.8576,7.85
908.0909,7.99
908.3242,8.24
908.5575,7.61
908.7908000000001,7.267
909.0241000000001,7.133
909.2574000000001,7.0
909.4907000000001,7.11
909.724,6.653
909.9573,5.843
910.1906,6.713
910.4239,6.9
910.6572000000001,6.657
910.8905000000001,6.51
911.1238000000001,6.68
911.3571000000001,6.123
911.5904,5.41
911.8237,5.25
912.057,5.873
912.2903,5.587
912.5236000000001,5.22
912.7569000000001,5.257
912.9902000000001,5.76
913.2235000000001,5.983
913.4568,5.31
913.6901,4.52
913.9234,4.997
914.1567,5.123
914.3900000000001,5.003
914.6233000000001,5.05
914.8566000000001,5.277
915.0899000000001,5.313
915.3232,5.413
915.5565,5.563
915.7898,6.117
916.0231,5.407
916.2564000000001,4.607
916.4897000000001,4.337
916.7230000000001,4.713
916.9563,5.287
917.1896,5.617
917.4229,5.667
917.6562,5.387
917.8895,4.853
918.1228000000001,4.757
918.3561000000001,5.103
918.5894000000001,5.263
918.8227,5.567
919.056,5.227
919.2893,4.523
919.5226,4.467
919.7559,4.29
919.9892000000001,4.693
920.2225000000001,4.9
920.4558000000001,5.127
920.6891,5.6
920.9224,5.713
921.1557,4.84
921.389,5.283
921.6223,4.797
921.8556000000001,4.45
922.0889000000001,4.51
922.3222000000001,4.703
922.5555,4.753
922.7888,4.697
923.0221,4.713
923.2554,5.053
923.4887,5.213
923.7220000000001,5.34
923.9553000000001,5.197
924.1886000000001,5.137
924.4219,5.14
924.6552,5.193
924.8885,5.12
925.1218,5.33
925.3551,4.763
925.5884000000001,4.463
925.8217000000001,4.403
926.0550000000001,4.523
926.2883,5.1
926.5216,5.673
926.7549,5.717
926.9882,6.073
927.2215,5.96
927.4548000000001,5.9
927.6881000000001,5.707
927.9214000000001,5.43
928.1547,5.55
928.388,5.557
928.6213,5.763
928.8546,6.273
929.0879000000001,5.31
929.3212000000001,5.6
929.5545000000001,6.523
929.7878000000001,6.763
930.0211,6.613
930.2544,6.053
930.4877,5.713
930.721,7.313
930.9543000000001,6.893
931.1876000000001,6.54
931.4209000000001,6.297
931.6542000000001,5.413
931.8875,4.94
932.1208,5.303
932.3541,6.26
932.5874,6.74
932.8207000000001,6.303
933.0540000000001,6.12
933.2873000000001,6.567
933.5206000000001,6.493
933.7539,6.257
933.9872,6.083
934.2205,6.29
934.4538,6.177
934.6871000000001,5.513
934.9204000000001,5.923
935.1537000000001,6.6
935.3870000000001,6.58
935.6203,6.833
935.8536,6.663
936.0869,5.603
936.3202,5.437
936.5535000000001,6.587
936.7868000000001,7.06
937.0201000000001,6.94
937.2534,6.903
937.4867,6.77
937.72,5.96
937.9533,5.497
938.1866,7.057
938.4199000000001,6.777
938.6532000000001,6.703
938.8865000000001,6.267
939.1198,5.963
939.3531,6.77
939.5864,7.36
939.8197,7.13
940.053,7.947
940.2863000000001,7.58
940.5196000000001,7.357
940.7529000000001,6.823
940.9862,6.037
941.2195,5.923
941.4528,6.423
941.6861,6.44
941.9194,7.583
942.1527000000001,7.763
942.3860000000001,7.92
942.6193000000001,7.49
942.8526,7.047
943.0859,7.047
943.3192,6.833
943.5525,6.31
943.7858,6.1
944.0191000000001,5.94
944.2524000000001,5.537
944.4857000000001,5.667
944.719,6.1
944.9523,6.83
945.1856,7.163
945.4189,7.007
945.6522,6.477
945.8855000000001,5.96
946.1188000000001,6.59
946.3521000000001,7.303
946.5854,7.593
946.8187,8.413
947.052,8.503
947.2853,7.243
947.5186,6.573
947.7519000000001,6.207
947.9852000000001,6.397
948.2185000000001,6.9
948.4518,7.13
948.6851,6.993
948.9184,6.483
949.1517,5.947
949.3850000000001,6.07
949.6183000000001,7.077
949.8516000000001,8.02
950.0849000000001,8.37
950.3182,8.677
950.5515,8.897
950.7848,8.333
951.0181,7.363
951.2514000000001,6.34
951.4847000000001,5.493
951.7180000000001,5.573
951.9513000000001,6.577
952.1846,7.417
952.4179,8.02
952.6512,8.227
952.8845,7.813
953.1178000000001,8.153
953.3511000000001,7.993
953.5844000000001,7.413
953.8177000000001,6.98
954.051,6.997
954.2843,7.517
954.5176,7.853
954.7509,8.0
954.9842000000001,8.433
955.2175000000001,8.697
955.4508000000001,8.7
955.6841000000001,8.21
955.9174,7.717
956.1507,7.58
956.384,7.34
956.6173,7.16
956.8506000000001,7.877
957.0839000000001,7.487
957.3172000000001,7.113
957.5505,7.01
957.7838,7.07
958.0171,7.467
958.2504,7.89
958.4837,8.28
958.7170000000001,8.4
958.9503000000001,7.773
959.1836000000001,7.547
959.4169,7.79
959.6502,7.873
959.8835,7.483
960.1168,7.233
960.3501,7.593
960.5834000000001,8.39
960.8167000000001,8.267
961.0500000000001,8.303
961.2833,8.353
961.5166,8.273
961.7499,7.913
961.9832,7.487
962.2165,6.993
962.4498000000001,7.4
962.6831000000001,7.653
962.9164000000001,7.657
963.1497,7.61
963.383,7.57
963.6163,7.827
963.8496,7.907
964.0829,8.03
964.3162000000001,8.85
964.5495000000001,8.957
964.7828000000001,8.537
965.0161,7.853
965.2494,7.127
965.4827,7.387
965.716,7.747
965.9493,7.747
966.1826000000001,8.47
966.4159000000001,8.303
966.6492000000001,8.027
966.8825,7.9
967.1158,7.453
967.3491,7.333
967.5824,7.237
967.8157,7.38
968.0490000000001,7.697
968.2823000000001,7.917
968.5156000000001,8.07
968.7489,7.577
968.9822,6.973
969.2155,6.54
969.4488,6.717
969.6821000000001,7.123
969.9154000000001,7.137
970.1487000000001,6.933
970.3820000000001,7.14
970.6153,7.83
970.8486,8.367
971.0819,8.277
971.3152,7.597
971.5485000000001,7.297
971.7818000000001,7.767
972.0151000000001,7.607
972.2484000000001,7.557
972.4817,7.823
972.715,7.923
972.9483,7.84
973.1816,7.873
973.4149000000001,8.003
973.6482000000001,10.037
973.8815000000001,9.947
974.1148000000001,9.8
974.3481,8.99
974.5814,7.837
974.8147,7.26
975.048,7.757
975.2813000000001,8.557
975.5146000000001,9.777
975.7479000000001,9.7
975.9812000000001,10.03
976.2145,9.797
976.4478,9.227
976.6811,9.383
976.9144,9.78
977.1477000000001,9.533
977.3810000000001,9.56
977.6143000000001,10.007
977.8476,9.697
978.0809,9.143
978.3142,9.13
978.5475,9.58
978.7808,8.837
979.0141000000001,7.867
979.2474000000001,8.157
979.4807000000001,9.52
979.714,9.923
979.9473,9.457
980.1806,9.337
980.4139,9.633
980.6472,9.467
980.8805000000001,9.027
981.1138000000001,9.787
981.3471000000001,9.21
981.5804,8.607
981.8137,8.813
982.047,9.827
982.2803,10.413
982.5136,10.83
982.7469000000001,11.367
982.9802000000001,11.547
983.2135000000001,11.393
983.4468,11.07
983.6801,11.32
983.9134,12.213
984.1467,12.953
984.38,12.887
984.6133000000001,12.763
984.8466000000001,13.873
985.0799000000001,14.023
985.3132,14.193
985.5465,13.957
985.7798,13.417
986.0131,13.74
986.2464,14.217
986.4797000000001,14.663
986.7130000000001,15.043
986.9463000000001,15.06
987.1796,15.51
987.4129,15.907
987.6462,16.08
987.8795,16.417
988.1128000000001,16.353
988.3461000000001,15.877
988.5794000000001,16.79
988.8127000000001,17.12
989.046,16.93
989.2793,16.727
989.5126,16.653
989.7459,16.96
989.9792000000001,18.027
990.2125000000001,19.277
990.4458000000001,19.713
990.6791000000001,19.35
990.9124,19.02
991.1457,19.323
991.379,19.47
991.6123,19.657
991.8456000000001,19.467
992.0789000000001,19.173
992.3122000000001,19.94
992.5455000000001,20.45
992.7788,20.63
993.0121,20.14
993.2454,20.04
993.4787,20.647
993.7120000000001,21.01
993.9453000000001,21.187
994.1786000000001,21.867
994.4119000000001,21.703
994.6452,21.287
994.8785,21.15
995.1118,21.283
995.3451,21.457
995.5784000000001,21.52
995.8117000000001,21.423
996.0450000000001,22.29
996.2783000000001,22.66
996.5116,22.46
996.7449,21.88
996.9782,21.803
997.2115,22.263
997.4448000000001,22.287
997.6781000000001,21.97
997.9114000000001,22.657
998.1447000000001,22.83
998.378,23.087
998.6113,23.32
998.8446,22.79
999.0779,22.993
999.3112000000001,23.06
999.5445000000001,22.62
999.7778000000001,22.917
1000.0111,23.917
1000.2444,24.28
1000.4777,23.677
1000.711,23.09
1000.9443,23.51
1001.1776000000001,23.873
1001.4109000000001,24.103
1001.6442000000001,25.407
1001.8775,25.11
1002.1108,25.123
1002.3441,24.94
1002.5774,24.67
1002.8107,25.017
1003.0440000000001,25.473
1003.2773000000001,25.19
1003.5106000000001,26.023
1003.7439,26.243
1003.9772,26.02
1004.2105,26.09
1004.4438,26.227
1004.6771,26.137
1004.9104000000001,25.807
1005.1437000000001,25.907
1005.3770000000001,25.817
1005.6103,25.887
1005.8436,26.627
1006.0769,27.447
1006.3102,27.553
1006.5435,27.673
1006.7768000000001,27.523
1007.0101000000001,26.923
1007.2434000000001,27.047
1007.4767,27.83
1007.71,28.4
1007.9433,28.62
1008.1766,28.407
1008.4099000000001,28.247
1008.6432000000001,28.15
1008.8765000000001,28.187
1009.1098000000001,28.84
1009.3431,29.383
1009.5764,29.523
1009.8097,29.09
1010.043,28.643
1010.2763000000001,28.853
1010.5096000000001,29.11
1010.7429000000001,29.14
1010.9762000000001,29.547
1011.2095,30.183
1011.4428,30.333
1011.6761,30.137
1011.9094,29.91
1012.1427000000001,29.84
1012.3760000000001,29.687
1012.6093000000001,30.023
1012.8426000000001,0.0
