Wavelength,Gray_Value
72.177,35.29
72.4103,36.03
72.6436,35.91
72.8769,35.64
73.1102,36.023
73.3435,36.033
73.5768,35.723
73.8101,35.483
74.0434,35.323
74.2767,34.027
74.51,33.917
74.7433,34.563
74.9766,34.45
75.2099,33.767
75.4432,33.09
75.6765,32.637
75.9098,34.077
76.1431,34.077
76.3764,34.043
76.6097,33.677
76.843,33.197
77.0763,33.313
77.3096,33.443
77.5429,33.037
77.7762,33.077
78.0095,33.453
78.2428,33.147
78.4761,32.107
78.7094,31.713
78.9427,31.907
79.176,32.007
79.4093,31.66
79.6426,31.733
79.8759,31.76
80.1092,31.543
80.3425,31.08
80.5758,31.223
80.8091,31.57
81.04240000000001,31.443
81.2757,30.83
81.50900000000001,30.773
81.7423,31.197
81.97560000000001,31.193
82.2089,30.637
82.44220000000001,30.433
82.6755,31.03
82.90880000000001,31.41
83.1421,31.173
83.37540000000001,29.45
83.60870000000001,29.72
83.84200000000001,29.643
84.07530000000001,29.42
84.30860000000001,29.52
84.54190000000001,29.71
84.77520000000001,29.577
85.00850000000001,29.607
85.24180000000001,29.943
85.47510000000001,29.71
85.70840000000001,29.423
85.94170000000001,29.37
86.17500000000001,29.59
86.40830000000001,29.917
86.64160000000001,29.55
86.87490000000001,29.047
87.10820000000001,29.253
87.34150000000001,29.477
87.57480000000001,29.5
87.80810000000001,29.37
88.04140000000001,29.523
88.27470000000001,29.253
88.50800000000001,28.69
88.74130000000001,28.577
88.97460000000001,29.26
89.20790000000001,29.49
89.44120000000001,29.603
89.67450000000001,29.493
89.90780000000001,29.17
90.14110000000001,28.927
90.37440000000001,28.673
90.60770000000001,28.47
90.84100000000001,28.41
91.07430000000001,28.4
91.30760000000001,28.867
91.54090000000001,28.857
91.77420000000001,28.227
92.00750000000001,27.957
92.24080000000001,28.047
92.4741,27.87
92.7074,27.793
92.9407,27.74
93.174,26.997
93.4073,26.267
93.6406,26.357
93.8739,27.397
94.1072,28.093
94.3405,28.057
94.5738,26.987
94.8071,27.287
95.0404,27.537
95.2737,27.37
95.507,27.433
95.7403,27.933
95.9736,27.52
96.2069,26.167
96.4402,26.687
96.6735,27.463
96.9068,27.777
97.1401,26.913
97.3734,25.8
97.6067,25.71
97.84,25.493
98.0733,24.99
98.3066,25.32
98.5399,25.177
98.7732,25.25
99.0065,25.87
99.2398,25.713
99.4731,24.96
99.7064,24.28
99.93970000000002,24.19
100.173,24.81
100.40630000000002,24.23
100.6396,23.78
100.87290000000002,24.34
101.1062,24.943
101.33950000000002,25.193
101.5728,24.547
101.80610000000001,24.04
102.0394,24.137
102.27270000000001,22.683
102.506,21.69
102.73930000000001,22.407
102.9726,23.947
103.20590000000001,24.52
103.4392,24.023
103.67250000000001,23.443
103.9058,23.733
104.13910000000001,24.29
104.3724,24.39
104.60570000000001,24.683
104.839,24.693
105.07230000000001,24.883
105.3056,24.66
105.53890000000001,24.207
105.7722,23.497
106.00550000000001,23.87
106.2388,24.277
106.47210000000001,24.46
106.7054,23.943
106.93870000000001,24.283
107.17200000000001,24.447
107.40530000000001,24.19
107.63860000000001,24.403
107.87190000000001,24.8
108.10520000000001,24.353
108.33850000000001,23.92
108.57180000000001,23.657
108.80510000000001,23.833
109.03840000000001,23.26
109.27170000000001,22.95
109.50500000000001,23.66
109.73830000000001,23.26
109.97160000000001,23.547
110.20490000000001,23.897
110.43820000000001,23.897
110.67150000000001,24.1
110.90480000000001,23.627
111.13810000000001,22.667
111.37140000000001,22.657
111.60470000000001,22.203
111.83800000000001,22.73
112.07130000000001,23.273
112.30460000000001,22.877
112.53790000000001,23.477
112.77120000000001,23.763
113.00450000000001,22.743
113.23780000000001,22.537
113.4711,22.82
113.7044,22.87
113.9377,22.66
114.171,22.813
114.4043,22.767
114.6376,21.82
114.8709,20.64
115.1042,21.197
115.3375,21.6
115.5708,22.49
115.8041,22.203
116.0374,21.243
116.2707,21.907
116.504,22.81
116.7373,22.4
116.9706,21.663
117.2039,21.683
117.43720000000002,21.667
117.6705,21.413
117.90380000000002,20.803
118.1371,20.9
118.37040000000002,21.063
118.6037,21.193
118.83700000000002,22.73
119.0703,23.03
119.30360000000002,22.217
119.5369,21.34
119.77020000000002,21.163
120.0035,21.297
120.23680000000002,21.007
120.4701,21.147
120.70340000000002,21.997
120.9367,22.097
121.17000000000002,21.567
121.4033,20.92
121.63660000000002,21.117
121.8699,22.227
122.10320000000002,22.48
122.3365,22.053
122.56980000000001,22.057
122.8031,21.637
123.03640000000001,20.943
123.2697,20.45
123.50300000000001,19.947
123.7363,19.873
123.96960000000001,20.107
124.2029,20.657
124.43620000000001,22.7
124.6695,22.903
124.90280000000001,22.797
125.1361,22.27
125.36940000000001,21.673
125.6027,21.247
125.83600000000001,21.077
126.0693,21.193
126.30260000000001,21.86
126.5359,21.943
126.76920000000001,21.93
127.00250000000001,21.637
127.23580000000001,20.63
127.46910000000001,20.76
127.70240000000001,21.5
127.93570000000001,21.48
128.169,21.21
128.40230000000003,20.483
128.6356,20.277
128.8689,21.157
129.1022,22.417
129.33550000000002,22.3
129.5688,21.22
129.8021,20.413
130.0354,20.5
130.26870000000002,21.07
130.502,21.207
130.7353,21.207
130.9686,21.0
131.20190000000002,21.13
131.4352,20.483
131.6685,19.91
131.9018,21.117
132.13510000000002,21.283
132.3684,20.963
132.6017,21.013
132.835,21.473
133.06830000000002,21.697
133.3016,21.05
133.5349,19.843
133.7682,19.323
134.00150000000002,19.113
134.2348,19.197
134.4681,19.28
134.7014,19.767
134.93470000000002,20.59
135.168,20.69
135.4013,20.017
135.6346,20.343
135.86790000000002,19.837
136.1012,19.827
136.3345,19.967
136.5678,19.743
136.80110000000002,19.823
137.0344,19.727
137.2677,19.193
137.501,19.663
137.73430000000002,19.683
137.9676,20.043
138.2009,20.11
138.4342,19.667
138.66750000000002,19.607
138.9008,19.6
139.1341,19.697
139.3674,20.35
139.60070000000002,20.47
139.834,20.06
140.0673,20.15
140.3006,20.403
140.53390000000002,20.077
140.7672,19.993
141.0005,20.36
141.2338,19.607
141.46710000000002,18.243
141.7004,18.433
141.93370000000002,19.943
142.16700000000003,20.827
142.40030000000002,20.663
142.6336,19.713
142.86690000000002,19.007
143.10020000000003,19.52
143.33350000000002,19.513
143.5668,19.52
143.80010000000001,20.13
144.03340000000003,20.237
144.26670000000001,19.773
144.5,19.827
144.7333,20.22
144.96660000000003,21.13
145.1999,20.937
145.4332,19.753
145.6665,19.127
145.89980000000003,19.78
146.1331,20.453
146.3664,19.803
146.5997,19.133
146.83300000000003,18.377
147.0663,18.8
147.2996,19.137
147.5329,18.937
147.76620000000003,18.857
147.9995,19.223
148.2328,19.2
148.4661,18.563
148.69940000000003,20.11
148.9327,20.12
149.166,19.803
149.3993,19.207
149.63260000000002,18.707
149.8659,18.35
150.0992,17.767
150.3325,17.41
150.56580000000002,18.313
150.7991,18.21
151.0324,18.07
151.2657,18.72
151.49900000000002,19.147
151.7323,18.92
151.9656,18.197
152.1989,17.57
152.43220000000002,17.57
152.6655,17.757
152.8988,17.827
153.1321,18.077
153.36540000000002,18.493
153.5987,18.617
153.832,18.327
154.0653,18.193
154.29860000000002,18.563
154.5319,18.17
154.7652,17.633
154.9985,17.53
155.23180000000002,17.723
155.4651,18.02
155.6984,17.973
155.9317,17.96
156.16500000000002,17.81
156.3983,18.28
156.6316,18.377
156.8649,18.047
157.09820000000002,18.363
157.3315,18.977
157.5648,18.273
157.7981,17.273
158.03140000000002,17.917
158.2647,18.457
158.498,18.22
158.7313,17.173
158.96460000000002,16.487
159.1979,16.887
159.4312,17.603
159.6645,18.003
159.89780000000002,18.72
160.1311,18.823
160.3644,18.867
160.5977,18.307
160.83100000000002,17.153
161.0643,16.413
161.2976,16.487
161.5309,16.82
161.76420000000002,18.85
161.9975,19.723
162.23080000000002,20.097
162.46410000000003,19.18
162.69740000000002,18.127
162.9307,18.347
163.16400000000002,18.507
163.39730000000003,17.687
163.63060000000002,18.013
163.8639,18.673
164.09720000000002,18.42
164.33050000000003,18.07
164.56380000000001,18.72
164.7971,19.687
165.03040000000001,19.67
165.26370000000003,19.22
165.497,18.737
165.7303,19.027
165.9636,19.223
166.19690000000003,19.247
166.4302,19.913
166.6635,20.193
166.8968,19.483
167.13010000000003,18.64
167.3634,17.33
167.5967,17.703
167.83,18.593
168.06330000000003,20.213
168.2966,20.307
168.5299,19.597
168.7632,18.88
168.99650000000003,18.813
169.2298,19.61
169.4631,18.577
169.6964,18.947
169.92970000000003,19.753
170.163,19.77
170.3963,19.813
170.6296,19.663
170.86290000000002,18.857
171.0962,19.403
171.3295,19.0
171.5628,18.663
171.79610000000002,19.16
172.0294,19.56
172.2627,19.55
172.496,18.877
172.72930000000002,18.55
172.9626,18.85
173.1959,19.257
173.4292,19.447
173.66250000000002,19.463
173.8958,19.377
174.1291,19.943
174.3624,20.47
174.59570000000002,20.31
174.829,20.037
175.0623,18.4
175.2956,18.237
175.52890000000002,18.82
175.7622,18.39
175.9955,18.893
176.2288,19.203
176.46210000000002,18.377
176.6954,17.657
176.9287,18.79
177.162,19.153
177.39530000000002,18.403
177.6286,17.917
177.8619,18.063
178.0952,18.193
178.32850000000002,17.603
178.5618,19.073
178.7951,19.583
179.0284,19.58
179.26170000000002,19.333
179.495,19.177
179.7283,18.4
179.9616,18.033
180.19490000000002,18.653
180.4282,20.51
180.6615,20.653
180.8948,20.323
181.12810000000002,19.73
181.3614,19.037
181.5947,18.83
181.82800000000003,19.403
182.06130000000002,20.153
182.2946,20.083
182.52790000000002,20.033
182.76120000000003,19.767
182.99450000000002,19.67
183.2278,19.687
183.46110000000002,19.873
183.69440000000003,19.417
183.92770000000002,19.077
184.161,19.683
184.39430000000002,19.533
184.62760000000003,19.183
184.86090000000002,19.32
185.0942,19.737
185.32750000000001,20.273
185.56080000000003,20.323
185.79410000000001,20.16
186.0274,19.92
186.2607,19.79
186.49400000000003,20.027
186.7273,20.017
186.9606,19.913
187.1939,20.56
187.42720000000003,20.893
187.6605,20.803
187.8938,20.91
188.1271,20.147
188.36040000000003,18.653
188.5937,18.12
188.827,18.763
189.0603,19.123
189.29360000000003,19.1
189.5269,19.52
189.7602,21.48
189.9935,21.683
190.22680000000003,21.187
190.4601,20.333
190.6934,19.64
190.9267,20.063
191.16000000000003,19.827
191.3933,19.247
191.6266,20.117
191.8599,20.877
192.09320000000002,20.863
192.3265,20.457
192.5598,20.24
192.7931,20.443
193.02640000000002,20.03
193.2597,19.23
193.493,19.617
193.7263,20.3
193.95960000000002,19.793
194.1929,18.77
194.4262,17.947
194.6595,18.15
194.89280000000002,19.143
195.1261,20.407
195.3594,21.347
195.5927,20.42
195.82600000000002,19.733
196.0593,19.673
196.2926,19.127
196.5259,19.107
196.75920000000002,18.903
196.9925,18.567
197.2258,18.667
197.4591,19.297
197.69240000000002,19.773
197.9257,18.59
198.159,17.097
198.3923,17.883
198.62560000000002,19.173
198.8589,19.47
199.0922,19.577
199.3255,20.337
199.55880000000002,19.607
199.7921,18.65
200.0254,18.937
200.25870000000003,19.22
200.49200000000002,18.907
200.7253,19.263
200.9586,19.083
201.19190000000003,18.73
201.42520000000002,18.763
201.6585,18.83
201.8918,18.847
202.12510000000003,19.927
202.35840000000002,20.027
202.5917,18.777
202.825,17.447
203.05830000000003,18.227
203.29160000000002,19.067
203.5249,18.917
203.7582,18.427
203.99150000000003,19.107
204.22480000000002,19.993
204.4581,19.92
204.6914,18.67
204.92470000000003,18.42
205.15800000000002,18.283
205.3913,18.683
205.6246,18.957
205.85790000000003,19.09
206.09120000000001,18.733
206.3245,18.387
206.5578,18.367
206.79110000000003,19.3
207.0244,19.123
207.2577,18.407
207.49099999999999,18.573
207.72430000000003,19.623
207.9576,19.597
208.1909,18.557
208.42419999999998,18.923
208.65750000000003,19.447
208.8908,19.423
209.1241,19.257
209.35739999999998,18.933
209.59070000000003,18.957
209.824,18.823
210.0573,18.733
210.29059999999998,18.697
210.52390000000003,19.767
210.7572,20.057
210.9905,19.823
211.22379999999998,19.583
211.45710000000003,19.047
211.6904,18.553
211.9237,18.647
212.15700000000004,19.537
212.39030000000002,19.633
212.6236,20.05
212.8569,19.883
213.09020000000004,18.9
213.32350000000002,19.41
213.5568,19.793
213.7901,19.153
214.02340000000004,19.6
214.25670000000002,18.937
214.49,18.897
214.7233,19.617
214.95660000000004,19.76
215.18990000000002,19.16
215.4232,18.923
215.6565,19.33
215.88980000000004,20.05
216.12310000000002,20.05
216.3564,19.777
216.5897,20.27
216.82300000000004,20.193
217.05630000000002,19.267
217.2896,18.377
217.5229,18.267
217.75620000000004,19.89
217.98950000000002,19.45
218.2228,19.04
218.4561,18.98
218.68940000000003,19.193
218.92270000000002,19.417
219.156,19.113
219.3893,18.61
219.62260000000003,18.137
219.85590000000002,18.7
220.0892,18.613
220.3225,18.403
220.55580000000003,18.757
220.78910000000002,19.267
221.0224,19.483
221.2557,19.357
221.48900000000003,20.657
221.72230000000002,20.417
221.9556,19.67
222.1889,18.95
222.42220000000003,18.623
222.65550000000002,19.233
222.8888,20.02
223.1221,20.49
223.35540000000003,20.48
223.58870000000002,20.15
223.822,19.97
224.0553,20.293
224.28860000000003,20.053
224.52190000000002,18.963
224.7552,18.39
224.9885,19.063
225.22180000000003,20.033
225.45510000000002,19.533
225.6884,19.243
225.9217,19.447
226.15500000000003,20.11
226.38830000000002,20.587
226.6216,20.273
226.8549,19.843
227.08820000000003,18.54
227.32150000000001,18.93
227.5548,19.43
227.7881,19.257
228.02140000000003,19.473
228.2547,20.93
228.488,21.13
228.72129999999999,19.863
228.95460000000003,19.093
229.1879,19.59
229.4212,20.3
229.65449999999998,20.287
229.88780000000003,19.71
230.1211,19.657
230.3544,19.887
230.58769999999998,19.747
230.82100000000003,20.693
231.0543,20.947
231.2876,20.483
231.52090000000004,19.693
231.75420000000003,19.29
231.9875,19.827
232.2208,20.14
232.45410000000004,20.183
232.68740000000003,20.1
232.9207,21.193
233.154,21.843
233.38730000000004,21.09
233.62060000000002,19.847
233.8539,20.267
234.0872,21.037
234.32050000000004,20.893
234.55380000000002,21.297
234.7871,21.397
235.0204,21.473
235.25370000000004,21.383
235.48700000000002,20.843
235.7203,20.213
235.9536,19.85
236.18690000000004,19.75
236.42020000000002,20.867
236.6535,20.083
236.8868,19.957
237.12010000000004,20.76
237.35340000000002,21.153
237.5867,20.88
237.82,20.963
238.05330000000004,21.067
238.28660000000002,21.453
238.5199,21.193
238.7532,21.217
238.98650000000004,22.053
239.21980000000002,22.42
239.4531,22.0
239.6864,21.033
239.91970000000003,20.56
240.15300000000002,20.907
240.3863,20.933
240.6196,20.833
240.85290000000003,21.04
241.08620000000002,21.287
241.3195,21.507
241.5528,21.32
241.78610000000003,20.96
242.01940000000002,20.643
242.2527,20.98
242.486,20.753
242.71930000000003,20.41
242.95260000000002,20.32
243.1859,20.977
243.4192,20.91
243.65250000000003,20.527
243.88580000000002,20.377
244.1191,20.923
244.3524,21.097
244.58570000000003,20.937
244.81900000000002,20.627
245.0523,20.743
245.2856,20.687
245.51890000000003,20.58
245.75220000000002,20.46
245.9855,20.083
246.2188,20.003
246.45210000000003,20.363
246.68540000000002,20.48
246.9187,20.237
247.152,19.837
247.38530000000003,20.04
247.61860000000001,21.563
247.8519,21.82
248.0852,21.327
248.31850000000003,21.14
248.55180000000001,20.62
248.7851,20.31
249.01839999999999,20.023
249.25170000000003,20.23
249.485,20.9
249.7183,21.023
249.95159999999998,21.307
250.18490000000003,20.657
250.4182,19.64
250.6515,20.707
250.88479999999998,21.223
251.11810000000003,20.037
251.3514,20.593
251.5847,22.05
251.81800000000004,21.667
252.05130000000003,20.787
252.2846,20.983
252.5179,21.3
252.75120000000004,20.797
252.98450000000003,20.64
253.2178,21.67
253.4511,21.28
253.68440000000004,21.1
253.91770000000002,21.023
254.151,21.08
254.3843,21.607
254.61760000000004,21.933
254.85090000000002,21.72
255.0842,22.407
255.3175,22.287
255.55080000000004,21.72
255.78410000000002,21.063
256.0174,20.457
256.2507,20.57
256.48400000000004,20.943
256.7173,21.613
256.9506,22.333
257.1839,22.84
257.41720000000004,22.207
257.6505,21.32
257.8838,20.623
258.1171,20.21
258.35040000000004,19.727
258.5837,19.8
258.817,20.937
259.0503,21.537
259.28360000000004,21.593
259.5169,21.683
259.7502,21.807
259.9835,21.79
260.21680000000003,21.38
260.4501,20.71
260.6834,21.247
260.9167,22.23
261.15000000000003,22.52
261.3833,21.96
261.6166,21.667
261.8499,22.003
262.08320000000003,22.053
262.3165,21.6
262.5498,21.21
262.7831,21.413
263.01640000000003,21.643
263.2497,21.283
263.483,21.347
263.7163,22.653
263.94960000000003,23.02
264.1829,21.917
264.4162,22.06
264.6495,20.93
264.88280000000003,19.67
265.1161,19.853
265.3494,20.643
265.5827,21.093
265.81600000000003,21.463
266.0493,22.43
266.2826,22.82
266.5159,21.94
266.74920000000003,21.233
266.9825,21.22
267.2158,21.367
267.4491,21.953
267.68240000000003,21.5
267.9157,19.903
268.149,20.807
268.3823,22.617
268.61560000000003,24.103
268.8489,23.577
269.0822,22.493
269.3155,23.21
269.5488,23.07
269.7821,21.217
270.0154,21.167
270.2487,21.613
270.482,21.373
270.7153,21.62
270.9486,22.753
271.1819,23.947
271.4152,23.293
271.6485,22.423
271.8818,21.887
272.11510000000004,20.083
272.3484,20.673
272.5817,22.123
272.815,22.177
273.04830000000004,23.963
273.2816,24.387
273.5149,22.33
273.7482,21.023
273.98150000000004,21.31
274.2148,21.9
274.4481,22.913
274.6814,23.213
274.91470000000004,22.96
275.148,22.233
275.3813,21.823
275.6146,22.203
275.84790000000004,23.053
276.0812,23.573
276.3145,22.893
276.5478,21.76
276.78110000000004,22.01
277.0144,22.283
277.2477,21.48
277.481,21.827
277.71430000000004,22.27
277.9476,22.77
278.1809,22.403
278.4142,22.127
278.64750000000004,23.483
278.8808,24.45
279.1141,23.56
279.3474,21.72
279.58070000000004,22.323
279.814,23.147
280.0473,23.56
280.2806,23.18
280.51390000000004,23.007
280.7472,23.043
280.9805,23.143
281.2138,23.57
281.44710000000003,23.4
281.6804,23.593
281.9137,23.617
282.147,22.507
282.38030000000003,22.713
282.6136,22.827
282.8469,22.313
283.0802,24.243
283.31350000000003,24.913
283.5468,25.213
283.7801,24.473
284.0134,23.777
284.24670000000003,23.813
284.48,24.157
284.7133,23.943
284.9466,23.88
285.17990000000003,24.8
285.4132,25.057
285.6465,23.82
285.8798,22.817
286.11310000000003,23.753
286.3464,23.68
286.5797,22.407
286.813,22.553
287.04630000000003,23.413
287.2796,24.34
287.5129,24.603
287.7462,24.157
287.97950000000003,23.523
288.2128,23.03
288.4461,22.86
288.6794,24.43
288.91270000000003,24.167
289.146,24.133
289.3793,23.773
289.6126,23.69
289.84590000000003,24.62
290.0792,24.047
290.3125,21.887
290.5458,22.763
290.7791,23.833
291.0124,23.367
291.2457,22.51
291.47900000000004,22.803
291.7123,23.623
291.9456,24.143
292.1789,24.64
292.41220000000004,24.603
292.6455,23.783
292.8788,23.283
293.1121,23.533
293.34540000000004,23.43
293.5787,23.37
293.812,23.273
294.0453,22.913
294.27860000000004,24.507
294.5119,24.657
294.7452,23.32
294.9785,23.5
295.21180000000004,24.303
295.4451,23.897
295.6784,23.433
295.9117,23.117
296.14500000000004,23.01
296.3783,24.337
296.6116,25.183
296.8449,24.85
297.07820000000004,24.22
297.3115,24.57
297.5448,24.887
297.7781,24.407
298.01140000000004,25.36
298.2447,24.75
298.478,24.61
298.7113,25.23
298.94460000000004,25.0
299.1779,24.007
299.4112,23.073
299.6445,23.083
299.87780000000004,23.68
300.1111,23.3
300.3444,23.747
300.5777,24.487
300.81100000000004,24.31
301.0443,23.887
301.2776,23.81
301.5109,23.653
301.74420000000003,23.987
301.9775,23.893
302.2108,23.64
302.4441,23.713
302.67740000000003,23.597
302.9107,23.01
303.144,22.347
303.3773,22.53
303.61060000000003,24.88
303.8439,23.62
304.0772,23.633
304.3105,24.157
304.54380000000003,23.653
304.7771,23.423
305.0104,23.497
305.2437,22.913
305.47700000000003,23.257
305.7103,22.85
305.9436,23.247
306.1769,23.903
306.41020000000003,23.523
306.6435,23.553
306.8768,23.773
307.1101,24.177
307.34340000000003,24.107
307.5767,23.113
307.81,23.087
308.0433,23.813
308.27660000000003,23.543
308.5099,23.127
308.7432,23.227
308.9765,23.357
309.20980000000003,24.133
309.4431,23.463
309.6764,22.927
309.9097,23.277
310.14300000000003,23.913
310.3763,24.167
310.6096,23.42
310.8429,22.613
311.07620000000003,23.47
311.3095,23.687
311.5428,24.023
311.77610000000004,24.763
312.0094,25.28
312.2427,25.25
312.476,24.417
312.70930000000004,23.71
312.9426,23.84
313.1759,23.493
313.4092,23.647
313.64250000000004,23.643
313.8758,23.273
314.1091,23.567
314.3424,23.677
314.57570000000004,23.553
314.809,23.987
315.0423,24.067
315.2756,23.56
315.50890000000004,22.64
315.7422,22.863
315.9755,24.2
316.2088,24.523
316.44210000000004,23.35
316.6754,23.403
316.9087,23.033
317.142,23.297
317.37530000000004,24.62
317.6086,25.16
317.8419,24.407
318.0752,24.05
318.30850000000004,24.517
318.5418,24.05
318.7751,23.957
319.0084,24.077
319.24170000000004,24.347
319.475,23.68
319.7083,22.9
319.9416,23.337
320.17490000000004,24.617
320.4082,24.707
320.6415,24.583
320.8748,24.817
321.10810000000004,24.903
321.3414,23.75
321.5747,22.923
321.808,22.813
322.04130000000004,23.24
322.2746,23.98
322.5079,23.593
322.7412,22.993
322.97450000000003,23.19
323.2078,23.903
323.4411,24.053
323.6744,23.83
323.90770000000003,23.65
324.141,22.973
324.3743,23.503
324.6076,24.54
324.84090000000003,24.83
325.0742,24.873
325.3075,25.633
325.5408,25.53
325.77410000000003,24.0
326.0074,23.227
326.2407,22.073
326.474,21.87
326.70730000000003,22.933
326.9406,23.52
327.1739,23.707
327.4072,23.373
327.64050000000003,23.487
327.8738,23.61
328.1071,23.31
328.34040000000005,22.48
328.57370000000003,22.243
328.807,22.66
329.0403,23.9
329.27360000000004,24.63
329.50690000000003,24.997
329.7402,24.287
329.9735,24.527
330.20680000000004,24.103
330.44010000000003,22.783
330.6734,21.463
330.9067,22.193
331.14000000000004,23.173
331.37330000000003,23.127
331.6066,23.933
331.83990000000006,24.71
332.07320000000004,24.153
332.3065,23.427
332.5398,23.867
332.77310000000006,24.647
333.00640000000004,24.427
333.2397,24.227
333.473,25.297
333.70630000000006,24.907
333.93960000000004,24.513
334.1729,24.447
334.4062,24.16
334.63950000000006,24.38
334.87280000000004,25.273
335.1061,26.143
335.3394,26.623
335.57270000000005,25.92
335.80600000000004,25.207
336.0393,25.043
336.2726,25.39
336.50590000000005,25.867
336.73920000000004,25.633
336.9725,24.99
337.2058,25.427
337.43910000000005,25.297
337.67240000000004,25.717
337.9057,25.173
338.139,24.083
338.37230000000005,24.633
338.60560000000004,25.233
338.8389,24.37
339.0722,25.713
339.30550000000005,25.553
339.53880000000004,24.953
339.7721,24.637
340.0054,24.537
340.23870000000005,24.18
340.47200000000004,23.577
340.7053,23.793
340.9386,24.36
341.17190000000005,24.15
341.40520000000004,24.16
341.6385,23.78
341.8718,23.297
342.10510000000005,22.64
342.33840000000004,23.017
342.5717,23.46
342.805,24.077
343.03830000000005,24.19
343.27160000000003,24.237
343.5049,24.11
343.7382,24.27
343.97150000000005,24.13
344.20480000000003,22.853
344.4381,21.597
344.6714,22.69
344.90470000000005,22.253
345.13800000000003,22.09
345.3713,22.14
345.6046,22.823
345.83790000000005,23.663
346.07120000000003,23.987
346.3045,23.473
346.5378,23.863
346.77110000000005,22.463
347.00440000000003,21.52
347.2377,21.357
347.471,21.5
347.70430000000005,22.357
347.93760000000003,22.653
348.1709,21.767
348.4042,22.503
348.63750000000005,22.72
348.87080000000003,22.833
349.1041,22.37
349.3374,21.713
349.57070000000004,21.63
349.80400000000003,21.96
350.0373,21.803
350.2706,21.637
350.50390000000004,22.32
350.73720000000003,23.37
350.9705,23.907
351.20380000000006,23.97
351.43710000000004,24.747
351.67040000000003,24.12
351.9037,22.037
352.13700000000006,20.753
352.37030000000004,21.197
352.60360000000003,21.997
352.8369,23.53
353.07020000000006,24.15
353.30350000000004,23.527
353.5368,22.453
353.7701,21.643
354.00340000000006,21.76
354.23670000000004,21.823
354.47,21.613
354.7033,21.64
354.93660000000006,22.07
355.16990000000004,22.37
355.4032,22.137
355.6365,22.09
355.86980000000005,22.847
356.10310000000004,22.193
356.3364,22.207
356.5697,22.14
356.80300000000005,21.653
357.03630000000004,22.157
357.2696,22.623
357.5029,21.94
357.73620000000005,21.293
357.96950000000004,21.17
358.2028,22.537
358.4361,22.643
358.66940000000005,21.067
358.90270000000004,21.47
359.136,22.537
359.3693,21.84
359.60260000000005,20.43
359.83590000000004,21.57
360.0692,22.487
360.3025,21.977
360.53580000000005,21.25
360.76910000000004,21.513
361.0024,21.72
361.2357,20.9
361.46900000000005,21.853
361.70230000000004,21.87
361.9356,22.083
362.1689,21.91
362.40220000000005,21.31
362.63550000000004,21.5
362.8688,21.41
363.1021,20.883
363.33540000000005,20.793
363.56870000000004,20.163
363.802,19.87
364.0353,20.577
364.26860000000005,21.05
364.50190000000003,20.907
364.7352,20.23
364.9685,20.06
365.20180000000005,21.683
365.43510000000003,21.493
365.6684,21.483
365.9017,21.48
366.13500000000005,20.743
366.36830000000003,20.873
366.6016,21.137
366.8349,21.293
367.06820000000005,20.55
367.30150000000003,21.277
367.5348,21.46
367.7681,20.44
368.00140000000005,19.767
368.23470000000003,20.643
368.468,21.22
368.7013,20.517
368.93460000000005,20.847
369.16790000000003,20.953
369.4012,21.027
369.6345,21.523
369.86780000000005,21.61
370.10110000000003,21.4
370.3344,20.783
370.5677,20.89
370.80100000000004,22.167
371.03430000000003,22.167
371.2676,21.947
371.50090000000006,21.487
371.73420000000004,20.867
371.96750000000003,20.727
372.2008,20.843
372.43410000000006,21.073
372.66740000000004,21.027
372.90070000000003,20.63
373.134,20.553
373.36730000000006,20.603
373.60060000000004,20.827
373.8339,21.38
374.0672,21.657
374.30050000000006,21.2
374.53380000000004,20.433
374.7671,20.733
375.0004,21.21
375.23370000000006,20.943
375.46700000000004,20.603
375.7003,21.533
375.9336,22.17
376.16690000000006,21.607
376.40020000000004,20.037
376.6335,19.053
376.8668,19.037
377.10010000000005,19.53
377.33340000000004,19.96
377.5667,20.873
377.8,21.133
378.03330000000005,20.24
378.26660000000004,19.72
378.4999,21.0
378.7332,21.553
378.96650000000005,20.967
379.19980000000004,20.557
379.4331,21.073
379.6664,20.373
379.89970000000005,19.587
380.13300000000004,19.477
380.3663,20.147
380.5996,20.06
380.83290000000005,19.957
381.06620000000004,20.46
381.2995,21.223
381.5328,20.92
381.76610000000005,20.183
381.99940000000004,19.653
382.2327,20.17
382.466,20.82
382.69930000000005,20.983
382.93260000000004,20.833
383.1659,21.4
383.3992,21.617
383.63250000000005,20.867
383.86580000000004,21.15
384.0991,21.577
384.3324,21.177
384.56570000000005,20.423
384.79900000000004,20.127
385.0323,20.48
385.2656,20.687
385.49890000000005,20.943
385.73220000000003,21.207
385.9655,21.5
386.1988,21.68
386.43210000000005,20.41
386.66540000000003,18.99
386.8987,19.543
387.132,21.11
387.36530000000005,21.227
387.59860000000003,21.56
387.8319,20.093
388.0652,19.757
388.29850000000005,21.097
388.53180000000003,22.073
388.7651,22.137
388.9984,20.787
389.23170000000005,19.383
389.46500000000003,19.963
389.6983,20.457
389.9316,21.29
390.16490000000005,22.173
390.39820000000003,21.44
390.6315,21.207
390.86480000000006,21.987
391.09810000000004,21.363
391.33140000000003,20.973
391.5647,22.177
391.79800000000006,22.4
392.03130000000004,22.053
392.26460000000003,21.94
392.4979,21.707
392.73120000000006,21.157
392.96450000000004,21.13
393.19780000000003,22.247
393.4311,22.463
393.66440000000006,22.597
393.89770000000004,21.99
394.13100000000003,21.16
394.3643,21.293
394.59760000000006,22.073
394.83090000000004,22.107
395.0642,22.24
395.2975,22.933
395.53080000000006,23.923
395.76410000000004,23.437
395.9974,22.17
396.2307,21.96
396.46400000000006,22.343
396.69730000000004,22.497
396.9306,22.0
397.1639,22.04
397.39720000000005,21.663
397.63050000000004,20.613
397.8638,19.787
398.0971,20.47
398.33040000000005,21.813
398.56370000000004,22.803
398.797,23.177
399.0303,24.093
399.26360000000005,24.447
399.49690000000004,23.58
399.7302,21.767
399.9635,20.51
400.19680000000005,19.833
400.43010000000004,19.69
400.6634,22.037
400.8967,23.357
401.13000000000005,23.54
401.36330000000004,22.903
401.5966,22.777
401.8299,22.9
402.06320000000005,22.813
402.29650000000004,22.333
402.5298,23.793
402.7631,23.047
402.99640000000005,22.12
403.22970000000004,22.14
403.463,22.47
403.6963,22.083
403.92960000000005,21.923
404.16290000000004,22.77
404.3962,23.537
404.6295,22.16
404.86280000000005,20.953
405.09610000000004,21.163
405.3294,22.09
405.5627,22.213
405.79600000000005,22.503
406.02930000000003,23.03
406.2626,24.05
406.4959,23.707
406.72920000000005,23.043
406.96250000000003,22.483
407.1958,22.537
407.4291,22.987
407.66240000000005,23.09
407.89570000000003,23.117
408.129,22.697
408.3623,23.463
408.59560000000005,23.37
408.82890000000003,22.993
409.0622,23.24
409.2955,23.553
409.52880000000005,24.017
409.76210000000003,24.597
409.9954,24.737
410.2287,23.957
410.46200000000005,23.45
410.69530000000003,23.45
410.9286,23.677
411.16190000000006,24.2
411.39520000000005,24.35
411.62850000000003,23.95
411.8618,24.183
412.09510000000006,23.427
412.32840000000004,22.703
412.56170000000003,22.83
412.795,23.543
413.02830000000006,24.763
413.26160000000004,25.087
413.49490000000003,24.877
413.7282,24.353
413.96150000000006,24.527
414.19480000000004,25.343
414.42810000000003,25.787
414.6614,25.457
414.89470000000006,25.49
415.12800000000004,26.22
415.3613,26.957
415.5946,26.667
415.82790000000006,26.15
416.06120000000004,27.03
416.2945,28.253
416.5278,28.68
416.76110000000006,28.993
416.99440000000004,29.407
417.2277,28.983
417.461,29.13
417.69430000000006,28.65
417.92760000000004,28.667
418.1609,29.823
418.3942,31.5
418.62750000000005,32.237
418.86080000000004,31.97
419.0941,31.91
419.3274,31.513
419.56070000000005,32.17
419.79400000000004,32.673
420.0273,33.263
420.2606,33.827
420.49390000000005,34.227
420.72720000000004,34.903
420.9605,35.503
421.1938,35.853
421.42710000000005,36.227
421.66040000000004,36.977
421.8937,37.58
422.127,37.517
422.36030000000005,37.937
422.59360000000004,38.397
422.8269,38.603
423.0602,39.547
423.29350000000005,39.087
423.52680000000004,38.677
423.7601,39.503
423.9934,40.243
424.22670000000005,41.0
424.46000000000004,41.45
424.6933,42.3
424.9266,42.837
425.15990000000005,43.62
425.39320000000004,43.973
425.6265,45.117
425.8598,46.383
426.09310000000005,47.697
426.32640000000004,48.347
426.5597,49.013
426.793,50.017
427.02630000000005,50.193
427.25960000000003,50.707
427.4929,51.887
427.7262,52.66
427.95950000000005,53.54
428.19280000000003,53.9
428.4261,55.14
428.6594,55.73
428.89270000000005,56.747
429.12600000000003,57.863
429.3593,58.733
429.5926,59.143
429.82590000000005,60.807
430.05920000000003,62.077
430.2925,61.82
430.5258,61.877
430.75910000000005,63.833
430.99240000000003,65.65
431.2257,66.29
431.45900000000006,66.473
431.69230000000005,68.403
431.92560000000003,69.443
432.1589,69.897
432.39220000000006,70.543
432.62550000000005,72.077
432.85880000000003,73.6
433.0921,74.833
433.32540000000006,74.877
433.55870000000004,76.033
433.79200000000003,77.193
434.0253,78.49
434.25860000000006,80.547
434.49190000000004,81.533
434.72520000000003,82.867
434.9585,84.513
435.19180000000006,85.4
435.42510000000004,87.27
435.65840000000003,88.577
435.8917,88.96
436.12500000000006,90.107
436.35830000000004,90.8
436.5916,91.767
436.8249,92.64
437.05820000000006,92.32
437.29150000000004,93.3
437.5248,94.32
437.7581,95.52
437.99140000000006,95.063
438.22470000000004,95.827
438.458,97.313
438.6913,97.563
438.92460000000005,97.507
439.15790000000004,99.31
439.3912,100.133
439.6245,100.163
439.85780000000005,101.223
440.09110000000004,101.647
440.3244,102.373
440.5577,103.177
440.79100000000005,103.78
441.02430000000004,103.647
441.2576,103.917
441.4909,103.947
441.72420000000005,104.113
441.95750000000004,104.247
442.1908,104.073
442.4241,104.157
442.65740000000005,104.85
442.89070000000004,104.903
443.124,104.86
443.3573,105.15
443.59060000000005,106.137
443.82390000000004,106.0
444.0572,105.997
444.2905,106.447
444.52380000000005,106.67
444.75710000000004,106.42
444.9904,106.667
445.2237,107.26
445.45700000000005,107.84
445.69030000000004,107.847
445.9236,108.047
446.1569,107.947
446.39020000000005,107.753
446.62350000000004,108.04
446.8568,108.25
447.0901,108.043
447.32340000000005,108.417
447.55670000000003,108.31
447.79,108.073
448.0233,107.807
448.25660000000005,108.11
448.48990000000003,108.717
448.7232,108.72
448.9565,108.107
449.18980000000005,108.063
449.42310000000003,108.183
449.6564,108.437
449.8897,108.767
450.12300000000005,108.737
450.35630000000003,108.287
450.5896,108.06
450.82290000000006,108.18
451.05620000000005,108.747
451.28950000000003,108.773
451.5228,108.32
451.75610000000006,108.11
451.98940000000005,108.313
452.22270000000003,108.397
452.456,108.31
452.68930000000006,108.277
452.92260000000005,108.65
453.15590000000003,108.127
453.3892,107.887
453.62250000000006,108.277
453.85580000000004,108.5
454.08910000000003,108.173
454.3224,107.693
454.55570000000006,107.693
454.78900000000004,107.967
455.02230000000003,107.677
455.2556,107.587
455.48890000000006,107.393
455.72220000000004,106.95
455.95550000000003,107.453
456.1888,107.733
456.42210000000006,106.93
456.65540000000004,106.873
456.88870000000003,106.937
457.122,107.113
457.35530000000006,106.93
457.58860000000004,107.077
457.8219,107.02
458.0552,106.17
458.28850000000006,106.16
458.52180000000004,107.067
458.7551,106.113
458.9884,105.653
459.22170000000006,106.19
459.45500000000004,106.363
459.6883,106.133
459.9216,105.767
460.15490000000005,105.51
460.38820000000004,105.673
460.6215,105.62
460.8548,105.687
461.08810000000005,105.56
461.32140000000004,105.133
461.5547,105.183
461.788,105.453
462.02130000000005,105.44
462.25460000000004,104.95
462.4879,104.727
462.7212,104.44
462.95450000000005,104.64
463.18780000000004,104.767
463.4211,104.707
463.6544,104.187
463.88770000000005,103.907
464.12100000000004,104.103
464.3543,103.567
464.5876,103.627
464.82090000000005,104.167
465.05420000000004,104.18
465.2875,103.887
465.5208,103.29
465.75410000000005,102.71
465.98740000000004,103.797
466.2207,103.69
466.454,103.483
466.68730000000005,103.127
466.92060000000004,103.15
467.1539,103.31
467.3872,103.153
467.62050000000005,103.1
467.85380000000004,103.293
468.0871,103.403
468.3204,103.187
468.55370000000005,102.89
468.78700000000003,102.243
469.0203,102.26
469.2536,102.35
469.48690000000005,102.32
469.72020000000003,102.79
469.9535,102.553
470.1868,102.033
470.42010000000005,102.08
470.65340000000003,102.34
470.8867,102.133
471.12000000000006,101.587
471.35330000000005,101.453
471.58660000000003,101.467
471.8199,102.073
472.05320000000006,103.347
472.28650000000005,105.593
472.51980000000003,107.513
472.7531,108.42
472.98640000000006,109.43
473.21970000000005,110.513
473.45300000000003,112.36
473.6863,113.55
473.91960000000006,113.73
474.15290000000005,113.13
474.38620000000003,113.877
474.6195,115.417
474.85280000000006,115.567
475.08610000000004,114.563
475.31940000000003,115.88
475.5527,116.723
475.78600000000006,117.2
476.01930000000004,117.17
476.25260000000003,117.753
476.4859,119.087
476.71920000000006,119.063
476.95250000000004,118.957
477.18580000000003,119.32
477.4191,120.427
477.65240000000006,121.05
477.88570000000004,121.76
478.119,122.257
478.3523,123.283
478.58560000000006,122.907
478.81890000000004,122.807
479.0522,124.297
479.2855,124.453
479.51880000000006,124.473
479.75210000000004,125.35
479.9854,126.31
480.2187,127.323
480.45200000000006,126.667
480.68530000000004,126.623
480.9186,127.353
481.1519,127.947
481.38520000000005,128.147
481.61850000000004,128.997
481.8518,129.047
482.0851,129.497
482.31840000000005,129.473
482.55170000000004,129.953
482.785,129.693
483.0183,130.0
483.25160000000005,130.71
483.48490000000004,131.437
483.7182,131.557
483.9515,131.83
484.18480000000005,131.417
484.41810000000004,131.747
484.6514,132.333
484.8847,132.143
485.11800000000005,133.033
485.35130000000004,133.743
485.5846,132.35
485.8179,132.563
486.05120000000005,133.883
486.28450000000004,135.067
486.5178,136.833
486.7511,135.923
486.98440000000005,134.96
487.21770000000004,136.827
487.451,138.517
487.6843,138.863
487.91760000000005,137.58
488.15090000000004,137.75
488.3842,137.48
488.6175,138.333
488.85080000000005,138.817
489.08410000000003,138.98
489.3174,138.997
489.5507,139.7
489.78400000000005,139.407
490.01730000000003,138.92
490.2506,139.97
490.48390000000006,139.56
490.71720000000005,139.19
490.95050000000003,140.253
491.1838,141.133
491.41710000000006,141.277
491.65040000000005,140.513
491.88370000000003,140.053
492.117,141.063
492.35030000000006,141.703
492.58360000000005,141.373
492.81690000000003,141.217
493.0502,141.26
493.28350000000006,142.513
493.51680000000005,142.413
493.75010000000003,142.047
493.9834,142.113
494.21670000000006,142.737
494.45000000000005,143.27
494.68330000000003,143.24
494.9166,142.867
495.14990000000006,143.56
495.38320000000004,143.797
495.61650000000003,144.147
495.8498,144.363
496.08310000000006,145.453
496.31640000000004,145.5
496.54970000000003,145.0
496.783,144.527
497.01630000000006,145.767
497.24960000000004,146.363
497.48290000000003,146.347
497.7162,146.227
497.94950000000006,146.603
498.18280000000004,146.497
498.41610000000003,146.733
498.6494,146.557
498.88270000000006,147.35
499.11600000000004,147.007
499.3493,146.693
499.5826,146.993
499.81590000000006,147.58
500.04920000000004,148.223
500.2825,148.297
500.5158,147.22
500.74910000000006,147.42
500.98240000000004,147.91
501.2157,148.417
501.449,147.687
501.68230000000005,147.42
501.91560000000004,147.24
502.1489,147.673
502.3822,147.76
502.61550000000005,147.87
502.84880000000004,147.22
503.0821,146.997
503.3154,147.313
503.54870000000005,147.39
503.78200000000004,147.473
504.0153,147.27
504.2486,146.463
504.48190000000005,147.103
504.71520000000004,146.95
504.9485,146.417
505.1818,145.643
505.41510000000005,146.653
505.64840000000004,146.363
505.8817,145.32
506.115,144.603
506.34830000000005,145.403
506.58160000000004,145.37
506.8149,144.787
507.0482,143.637
507.28150000000005,144.797
507.51480000000004,145.243
507.7481,144.603
507.9814,142.66
508.21470000000005,142.633
508.44800000000004,142.863
508.6813,142.75
508.9146,142.59
509.14790000000005,142.04
509.38120000000004,141.65
509.6145,141.97
509.8478,141.66
510.08110000000005,141.557
510.31440000000003,140.82
510.5477,140.107
510.78100000000006,141.063
511.01430000000005,140.937
511.24760000000003,140.317
511.4809,139.607
511.71420000000006,138.777
511.94750000000005,139.947
512.1808,140.07
512.4141,138.857
512.6474000000001,136.997
512.8807,137.363
513.114,137.39
513.3473,137.027
513.5806,136.627
513.8139,136.937
514.0472,136.147
514.2805,135.397
514.5138000000001,135.93
514.7471,135.39
514.9804,135.563
515.2137,135.453
515.447,134.103
515.6803,134.457
515.9136,134.477
516.1469,133.323
516.3802000000001,133.16
516.6135,133.357
516.8468,133.557
517.0801,133.557
517.3134,132.437
517.5467,132.427
517.78,131.927
518.0133,131.793
518.2466000000001,131.307
518.4799,130.44
518.7132,130.273
518.9465,130.817
519.1798,130.453
519.4131,130.377
519.6464,129.897
519.8797,129.463
520.113,129.667
520.3463,129.04
520.5796,128.88
520.8129,129.01
521.0462,128.507
521.2795,128.773
521.5128,128.06
521.7461,127.127
521.9794,126.763
522.2127,127.03
522.446,126.64
522.6793,126.17
522.9126,126.33
523.1459,127.103
523.3792,127.083
523.6125,126.363
523.8458,124.803
524.0791,125.123
524.3124,125.787
524.5457,125.813
524.779,124.367
525.0123,124.493
525.2456,124.857
525.4789,124.09
525.7122,124.55
525.9455,124.357
526.1788,124.073
526.4121,124.12
526.6454,123.6
526.8787,123.363
527.112,122.173
527.3453,121.473
527.5786,121.963
527.8119,121.747
528.0452,121.64
528.2785,121.8
528.5118,121.387
528.7451,120.807
528.9784,120.64
529.2117,120.92
529.445,120.393
529.6783,120.06
529.9116,119.773
530.1449,119.993
530.3782,119.957
530.6115,119.667
530.8448,119.317
531.0781000000001,119.273
531.3114,118.7
531.5447,118.703
531.778,118.373
532.0113,117.933
532.2446,118.013
532.4779,118.253
532.7112,117.893
532.9445000000001,117.533
533.1778,116.467
533.4111,117.497
533.6444,117.383
533.8777,116.083
534.111,115.207
534.3443,116.287
534.5776,116.617
534.8109000000001,115.647
535.0442,113.707
535.2775,113.787
535.5108,113.647
535.7441,113.667
535.9774,113.297
536.2107,112.857
536.444,112.323
536.6773000000001,112.283
536.9106,111.537
537.1439,111.187
537.3772,111.087
537.6105,111.017
537.8438,110.253
538.0771,109.95
538.3104,110.0
538.5437000000001,109.973
538.777,109.943
539.0103,109.593
539.2436,108.843
539.4769,108.493
539.7102,108.36
539.9435,108.1
540.1768,107.903
540.4101,108.233
540.6434,108.48
540.8767,107.99
541.11,106.793
541.3433,106.193
541.5766,106.57
541.8099,106.79
542.0432,105.477
542.2765,104.443
542.5098,104.837
542.7431,104.71
542.9764,105.053
543.2097,104.513
543.443,103.373
543.6763,103.913
543.9096,104.563
544.1429,103.453
544.3762,102.927
544.6095,102.677
544.8428,103.02
545.0761,103.053
545.3094,102.053
545.5427,101.513
545.776,101.503
546.0093,101.343
546.2426,100.857
546.4759,100.92
546.7092,100.63
546.9425,100.23
547.1758,99.953
547.4091,100.443
547.6424,99.54
547.8757,97.48
548.109,98.363
548.3423,98.887
548.5756,97.983
548.8089,97.827
549.0422,97.69
549.2755,97.47
549.5088,97.32
549.7421,96.193
549.9754,96.137
550.2087,96.023
550.442,96.047
550.6753,95.67
550.9086,95.493
551.1419,96.217
551.3752000000001,96.873
551.6085,96.197
551.8418,95.41
552.0751,94.577
552.3084,94.397
552.5417,95.297
552.775,95.037
553.0083,94.227
553.2416000000001,93.553
553.4749,93.857
553.7082,94.74
553.9415,94.72
554.1748,94.143
554.4081,93.663
554.6414,94.313
554.8747,95.033
555.1080000000001,94.533
555.3413,93.503
555.5746,93.72
555.8079,93.4
556.0412,93.02
556.2745,92.68
556.5078,92.747
556.7411,93.637
556.9744000000001,93.81
557.2077,92.99
557.441,93.017
557.6743,93.093
557.9076,93.107
558.1409,93.437
558.3742,93.8
558.6075,93.367
558.8408000000001,92.243
559.0741,91.463
559.3074,93.973
559.5407,93.477
559.774,92.41
560.0073,92.307
560.2406,93.087
560.4739,93.357
560.7072000000001,92.87
560.9405,92.38
561.1738,92.42
561.4071,91.617
561.6404,91.347
561.8737,92.727
562.107,93.633
562.3403,92.043
562.5736,90.957
562.8069,91.75
563.0402,93.053
563.2735,91.843
563.5068,91.283
563.7401,92.13
563.9734,92.403
564.2067,91.73
564.44,91.393
564.6733,91.933
564.9066,93.03
565.1399,92.287
565.3732,91.987
565.6065,91.9
565.8398,91.213
566.0731,91.807
566.3064,92.487
566.5397,91.903
566.773,92.11
567.0063,92.24
567.2396,92.947
567.4729,93.34
567.7062,93.46
567.9395,93.643
568.1728,94.207
568.4061,94.673
568.6394,95.44
568.8727,95.737
569.106,96.15
569.3393,96.6
569.5726,96.807
569.8059,97.2
570.0392,97.463
570.2725,97.53
570.5058,97.383
570.7391,99.093
570.9724,100.053
571.2057,99.963
571.439,99.557
571.6723000000001,99.223
571.9056,99.237
572.1389,99.923
572.3722,102.06
572.6055,101.68
572.8388,100.977
573.0721,101.347
573.3054,102.603
573.5387000000001,103.403
573.772,103.453
574.0053,104.08
574.2386,105.637
574.4719,105.94
574.7052,107.043
574.9385,109.2
575.1718,110.537
575.4051000000001,111.457
575.6384,112.193
575.8717,112.883
576.105,115.023
576.3383,116.29
576.5716,117.237
576.8049,118.95
577.0382,121.027
577.2715000000001,122.677
577.5048,123.907
577.7381,125.073
577.9714,127.03
578.2047,128.013
578.438,129.103
578.6713,129.733
578.9046,130.793
579.1379000000001,131.277
579.3712,131.003
579.6045,130.99
579.8378,132.9
580.0711,133.287
580.3044,133.477
580.5377,133.953
580.771,134.173
581.0043000000001,134.81
581.2376,135.24
581.4709,135.04
581.7042,135.74
581.9375,136.287
582.1708,135.977
582.4041,135.92
582.6374,136.29
582.8707,136.81
583.104,136.613
583.3373,137.167
583.5706,137.27
583.8039,137.957
584.0372,137.86
584.2705000000001,137.427
584.5038000000001,136.9
584.7371,137.627
584.9704,137.94
585.2037,137.707
585.437,137.6
585.6703,137.943
585.9036,137.823
586.1369000000001,137.883
586.3702000000001,138.507
586.6035,138.53
586.8368,138.37
587.0701,138.3
587.3034,138.397
587.5367,138.44
587.77,138.52
588.0033000000001,138.21
588.2366000000001,138.067
588.4699,137.577
588.7032,137.503
588.9365,137.04
589.1698,137.397
589.4031,136.727
589.6364,136.243
589.8697000000001,136.157
590.1030000000001,136.433
590.3363,135.71
590.5696,135.097
590.8029,135.187
591.0362,135.23
591.2695,135.073
591.5028000000001,134.37
591.7361000000001,133.777
591.9694000000001,134.617
592.2027,134.753
592.436,134.447
592.6693,133.66
592.9026,133.967
593.1359,133.577
593.3692000000001,133.313
593.6025000000001,132.873
593.8358000000001,133.297
594.0691,132.54
594.3024,132.19
594.5357,132.54
594.769,132.687
595.0023,131.703
595.2356000000001,131.033
595.4689000000001,130.863
595.7022000000001,131.47
595.9355,131.037
596.1688,130.733
596.4021,129.943
596.6354,131.04
596.8687,130.167
597.1020000000001,129.467
597.3353000000001,128.85
597.5686000000001,129.293
597.8019,128.69
598.0352,127.433
598.2685,126.97
598.5018,127.817
598.7351,127.59
598.9684000000001,127.527
599.2017000000001,126.96
599.4350000000001,126.673
599.6683,126.15
599.9016,126.557
600.1349,126.55
600.3682,127.55
600.6015,126.77
600.8348000000001,126.22
601.0681000000001,125.837
601.3014000000001,125.86
601.5347,125.507
601.768,125.34
602.0013,125.517
602.2346,125.397
602.4679,124.847
602.7012000000001,124.087
602.9345000000001,124.103
603.1678,124.763
603.4011,124.847
603.6344,124.273
603.8677,123.08
604.101,123.183
604.3343,123.817
604.5676000000001,123.403
604.8009000000001,122.547
605.0342,122.437
605.2675,122.153
605.5008,121.957
605.7341,121.563
605.9674,122.063
606.2007,121.473
606.4340000000001,121.553
606.6673000000001,121.257
606.9006,120.907
607.1339,120.83
607.3672,120.87
607.6005,120.487
607.8338,119.883
608.0671,119.963
608.3004000000001,120.24
608.5337000000001,120.19
608.767,119.993
609.0003,119.357
609.2336,118.943
609.4669,118.727
609.7002,119.31
609.9335000000001,119.81
610.1668000000001,119.55
610.4001000000001,118.25
610.6334,117.943
610.8667,118.043
611.1,118.15
611.3333,117.59
611.5666,117.993
611.7999000000001,118.11
612.0332000000001,118.427
612.2665000000001,117.613
612.4998,116.98
612.7331,117.13
612.9664,117.63
613.1997,118.39
613.433,118.323
613.6663000000001,116.653
613.8996000000001,116.303
614.1329000000001,118.063
614.3662,118.597
614.5995,116.967
614.8328,116.06
615.0661,116.56
615.2994,117.35
615.5327000000001,117.06
615.7660000000001,116.333
615.9993000000001,115.683
616.2326,115.787
616.4659,116.007
616.6992,115.737
616.9325,115.167
617.1658,115.203
617.3991000000001,114.937
617.6324000000001,115.397
617.8657000000001,116.127
618.099,116.103
618.3323,115.693
618.5656,115.417
618.7989,114.653
619.0322,115.227
619.2655000000001,114.933
619.4988000000001,115.29
619.7321000000001,115.28
619.9654,115.07
620.1987,115.12
620.432,115.2
620.6653,114.53
620.8986,114.613
621.1319000000001,114.583
621.3652000000001,114.79
621.5985000000001,114.81
621.8318,114.54
622.0651,113.99
622.2984,114.353
622.5317,114.693
622.765,115.043
622.9983000000001,114.353
623.2316000000001,114.54
623.4649000000001,114.58
623.6982,114.397
623.9315,114.167
624.1648,113.997
624.3981,113.79
624.6314,114.53
624.8647000000001,114.407
625.0980000000001,114.163
625.3313,114.213
625.5646,114.527
625.7979,113.92
626.0312,113.417
626.2645,113.887
626.4978,114.71
626.7311000000001,113.6
626.9644000000001,112.797
627.1977,113.473
627.431,114.443
627.6643,114.11
627.8976,113.91
628.1309,113.76
628.3642,112.873
628.5975000000001,113.52
628.8308000000001,113.757
629.0641,113.133
629.2974,112.897
629.5307,113.167
629.764,112.867
629.9973,111.977
630.2306000000001,113.033
630.4639000000001,112.733
630.6972000000001,112.253
630.9305,112.053
631.1638,112.56
631.3971,112.593
631.6304,112.073
631.8637,112.043
632.0970000000001,111.34
632.3303000000001,111.187
632.5636000000001,110.847
632.7969,111.187
633.0302,111.457
633.2635,111.237
633.4968,110.77
633.7301,110.03
633.9634000000001,110.53
634.1967000000001,110.45
634.4300000000001,110.617
634.6633,110.527
634.8966,109.813
635.1299,109.563
635.3632,109.54
635.5965,109.23
635.8298000000001,109.777
636.0631000000001,109.32
636.2964000000001,109.087
636.5297,108.83
636.763,108.94
636.9963,108.86
637.2296,108.6
637.4629,108.19
637.6962000000001,108.833
637.9295000000001,108.503
638.1628000000001,107.683
638.3961,107.333
638.6294,107.54
638.8627,107.73
639.096,107.453
639.3293,106.883
639.5626000000001,105.973
639.7959000000001,105.463
640.0292000000001,106.46
640.2625,106.667
640.4958,105.627
640.7291,105.853
640.9624,106.373
641.1957,105.163
641.4290000000001,104.787
641.6623000000001,105.357
641.8956000000001,105.487
642.1289,104.86
642.3622,104.767
642.5955,104.513
642.8288,103.687
643.0621,102.857
643.2954000000001,104.023
643.5287000000001,103.32
643.7620000000001,102.307
643.9953,102.263
644.2286,102.757
644.4619,102.503
644.6952,101.8
644.9285,101.763
645.1618000000001,101.193
645.3951000000001,100.28
645.6284,100.24
645.8617,100.983
646.095,100.423
646.3283,99.23
646.5616,98.08
646.7949,97.943
647.0282000000001,97.62
647.2615000000001,96.967
647.4948,96.103
647.7281,95.69
647.9614,95.007
648.1947,94.653
648.428,94.06
648.6613,93.33
648.8946000000001,93.893
649.1279000000001,94.113
649.3612,93.793
649.5945,92.923
649.8278,91.783
650.0611,91.5
650.2944,91.44
650.5277000000001,91.54
650.7610000000001,92.037
650.9943000000001,90.36
651.2276,88.867
651.4609,88.377
651.6942,88.177
651.9275,88.277
652.1608,86.823
652.3941000000001,84.85
652.6274000000001,84.1
652.8607000000001,83.203
653.094,82.733
653.3273,83.013
653.5606,82.043
653.7939,81.14
654.0272,80.867
654.2605000000001,80.647
654.4938000000001,80.297
654.7271000000001,80.21
654.9604,78.527
655.1937,76.74
655.427,76.263
655.6603,76.113
655.8936,75.707
656.1269000000001,75.717
656.3602000000001,75.487
656.5935000000001,74.473
656.8268,73.683
657.0601,73.343
657.2934,72.313
657.5267,71.157
657.76,69.807
657.9933000000001,68.597
658.2266000000001,68.467
658.4599000000001,68.157
658.6932,66.95
658.9265,66.257
659.1598,65.877
659.3931,65.44
659.6264,64.633
659.8597000000001,64.777
660.0930000000001,65.5
660.3263000000001,64.853
660.5596,63.433
660.7929,62.503
661.0262,62.457
661.2595,62.793
661.4928,60.267
661.7261000000001,57.223
661.9594000000001,58.813
662.1927000000001,58.657
662.426,57.72
662.6593,58.053
662.8926,58.67
663.1259,57.663
663.3592,55.813
663.5925000000001,55.76
663.8258000000001,56.807
664.0591000000001,55.883
664.2924,53.04
664.5257,53.107
664.759,53.403
664.9923,53.077
665.2256,52.597
665.4589000000001,50.32
665.6922000000001,48.817
665.9255,49.223
666.1588,49.743
666.3921,49.607
666.6254,48.803
666.8587,48.89
667.092,48.39
667.3253000000001,46.967
667.5586000000001,46.11
667.7919,45.437
668.0252,46.013
668.2585,46.453
668.4918,45.663
668.7251,45.457
668.9584,44.937
669.1917000000001,43.703
669.4250000000001,43.68
669.6583,43.637
669.8916,42.99
670.1249,43.183
670.3582,42.883
670.5915,41.993
670.8248000000001,41.557
671.0581000000001,40.68
671.2914000000001,41.1
671.5247,40.683
671.758,40.257
671.9913,40.92
672.2246,40.953
672.4579,39.3
672.6912000000001,37.8
672.9245000000001,38.4
673.1578000000001,38.147
673.3911,38.023
673.6244,37.687
673.8577,37.657
674.091,37.36
674.3243,36.587
674.5576000000001,34.613
674.7909000000001,33.383
675.0242000000001,33.737
675.2575,34.19
675.4908,34.47
675.7241,33.703
675.9574,32.84
676.1907,33.9
676.4240000000001,34.747
676.6573000000001,33.837
676.8906000000001,33.27
677.1239,33.48
677.3572,32.953
677.5905,31.973
677.8238,32.433
678.0571,33.683
678.2904000000001,33.27
678.5237000000001,31.65
678.7570000000001,31.877
678.9903,31.927
679.2236,32.24
679.4569,32.303
679.6902,32.353
679.9235,33.333
680.1568000000001,33.59
680.3901000000001,32.787
680.6234000000001,32.22
680.8567,32.43
681.09,32.76
681.3233,32.74
681.5566,32.39
681.7899,33.02
682.0232000000001,33.34
682.2565000000001,32.62
682.4898000000001,33.007
682.7231,34.297
682.9564,34.867
683.1897,34.793
683.423,34.897
683.6563,36.13
683.8896000000001,36.937
684.1229000000001,37.33
684.3562000000001,38.527
684.5895,39.037
684.8228,39.94
685.0561,40.747
685.2894,41.043
685.5227,42.15
685.7560000000001,44.3
685.9893000000001,46.403
686.2226,48.817
686.4559,50.787
686.6892,53.563
686.9225,56.003
687.1558,55.58
687.3891,57.743
687.6224000000001,61.773
687.8557000000001,64.087
688.089,64.083
688.3223,64.827
688.5556,67.077
688.7889,70.347
689.0222,73.853
689.2555,77.933
689.4888000000001,80.58
689.7221000000001,80.537
689.9554,80.92
690.1887,85.353
690.422,88.113
690.6553,88.523
690.8886,90.187
691.1219000000001,91.963
691.3552000000001,92.423
691.5885000000001,92.203
691.8218,94.6
692.0551,96.713
692.2884,97.09
692.5217,96.58
692.755,96.957
692.9883000000001,99.427
693.2216000000001,101.08
693.4549000000001,99.54
693.6882,98.757
693.9215,100.28
694.1548,101.977
694.3881,103.407
694.6214,103.66
694.8547000000001,103.58
695.0880000000001,104.443
695.3213000000001,105.847
695.5546,107.037
695.7879,107.17
696.0212,107.307
696.2545,108.407
696.4878,109.807
696.7211000000001,109.507
696.9544000000001,109.43
697.1877000000001,110.97
697.421,112.62
697.6543,112.56
697.8876,112.69
698.1209,113.67
698.3542,115.487
698.5875000000001,116.517
698.8208000000001,115.383
699.0541000000001,113.933
699.2874,115.177
699.5207,116.407
699.754,118.077
699.9873,118.747
700.2206,118.417
700.4539000000001,118.977
700.6872000000001,119.713
700.9205000000001,119.523
701.1538,120.803
701.3871,120.973
701.6204,120.937
701.8537,120.997
702.087,121.32
702.3203000000001,122.56
702.5536000000001,123.107
702.7869000000001,122.71
703.0202,123.107
703.2535,123.337
703.4868,123.947
703.7201,124.617
703.9534,124.443
704.1867000000001,124.013
704.4200000000001,124.323
704.6533000000001,125.133
704.8866,125.443
705.1199,124.553
705.3532,124.393
705.5865,125.327
705.8198,124.993
706.0531000000001,124.987
706.2864000000001,125.983
706.5197000000001,125.467
706.753,126.463
706.9863,126.4
707.2196,126.517
707.4529,126.667
707.6862,125.59
707.9195000000001,125.47
708.1528000000001,127.197
708.3861,127.467
708.6194,127.553
708.8527,127.003
709.086,126.02
709.3193,126.42
709.5526000000001,128.2
709.7859000000001,128.22
710.0192000000001,127.027
710.2525,126.713
710.4858,128.45
710.7191,127.537
710.9524,127.17
711.1857,127.78
711.4190000000001,128.15
711.6523000000001,127.8
711.8856000000001,127.83
712.1189,128.25
712.3522,127.693
712.5855,127.663
712.8188,128.057
713.0521,128.107
713.2854000000001,127.853
713.5187000000001,128.513
713.7520000000001,128.793
713.9853,128.093
714.2186,127.633
714.4519,128.257
714.6852,127.8
714.9185,127.59
715.1518000000001,128.517
715.3851000000001,129.067
715.6184000000001,128.673
715.8517,128.273
716.085,128.71
716.3183,128.58
716.5516,128.6
716.7849,129.01
717.0182000000001,129.13
717.2515000000001,128.89
717.4848000000001,128.617
717.7181,128.397
717.9514,129.123
718.1847,128.773
718.418,129.667
718.6513,130.527
718.8846000000001,129.8
719.1179000000001,129.08
719.3512000000001,129.193
719.5845,129.313
719.8178,129.97
720.0511,128.28
720.2844,127.633
720.5177,128.943
720.7510000000001,130.137
720.9843000000001,130.017
721.2176000000001,128.89
721.4509,127.95
721.6842,129.507
721.9175,128.907
722.1508,128.517
722.3841,128.757
722.6174000000001,129.397
722.8507000000001,129.857
723.0840000000001,129.197
723.3173,127.847
723.5506,129.45
723.7839,129.37
724.0172,129.233
724.2505,128.62
724.4838000000001,127.967
724.7171000000001,128.793
724.9504000000001,129.607
725.1837,129.383
725.417,128.98
725.6503,128.27
725.8836,128.47
726.1169,128.44
726.3502000000001,128.177
726.5835000000001,128.897
726.8168000000001,129.023
727.0501,127.733
727.2834,126.613
727.5167,127.973
727.75,129.487
727.9833,128.907
728.2166000000001,127.253
728.4499000000001,127.553
728.6832,127.623
728.9165,126.053
729.1498,128.153
729.3831,127.523
729.6164,126.553
729.8497000000001,126.443
730.0830000000001,127.143
730.3163000000001,127.373
730.5496,126.983
730.7829,126.703
731.0162,126.623
731.2495,126.193
731.4828,126.093
731.7161000000001,125.893
731.9494000000001,125.753
732.1827000000001,126.133
732.416,126.163
732.6493,125.623
732.8826,125.28
733.1159,125.44
733.3492,125.42
733.5825000000001,124.99
733.8158000000001,124.723
734.0491000000001,124.703
734.2824,124.633
734.5157,124.013
734.749,125.553
734.9823,125.243
735.2156,123.743
735.4489000000001,124.153
735.6822000000001,125.02
735.9155000000001,124.1
736.1488,124.04
736.3821,124.79
736.6154,124.427
736.8487,123.287
737.082,123.04
737.3153000000001,123.9
737.5486000000001,124.37
737.7819000000001,123.64
738.0152,122.863
738.2485,122.853
738.4818,122.98
738.7151,122.63
738.9484,122.807
739.1817000000001,123.437
739.4150000000001,123.123
739.6483000000001,121.813
739.8816,121.4
740.1149,122.41
740.3482,123.48
740.5815,121.56
740.8148,120.42
741.0481000000001,121.87
741.2814000000001,123.25
741.5147000000001,121.74
741.748,119.77
741.9813,119.56
742.2146,120.363
742.4479,121.193
742.6812,121.253
742.9145000000001,119.993
743.1478000000001,119.063
743.3811000000001,119.303
743.6144,119.533
743.8477,119.123
744.081,118.583
744.3143,118.793
744.5476,118.46
744.7809000000001,117.71
745.0142000000001,117.86
745.2475000000001,118.763
745.4808,118.713
745.7141,117.553
745.9474,117.827
746.1807,117.137
746.414,116.83
746.6473000000001,117.06
746.8806000000001,116.637
747.1139000000001,115.567
747.3472,115.17
747.5805,116.02
747.8138,115.597
748.0471,116.917
748.2804,115.77
748.5137000000001,112.83
748.7470000000001,112.657
748.9803,115.527
749.2136,116.183
749.4469,114.123
749.6802,113.407
749.9135,113.357
750.1468000000001,113.213
750.3801000000001,112.893
750.6134000000001,112.98
750.8467,113.73
751.08,113.437
751.3133,111.923
751.5466,112.12
751.7799,111.52
752.0132000000001,112.09
752.2465000000001,112.15
752.4798000000001,111.22
752.7131,111.32
752.9464,111.97
753.1797,111.18
753.413,109.73
753.6463,110.4
753.8796000000001,110.87
754.1129000000001,110.5
754.3462000000001,110.12
754.5795,110.31
754.8128,109.95
755.0461,108.65
755.2794,109.917
755.5127,109.487
755.7460000000001,108.887
755.9793000000001,108.237
756.2126000000001,108.447
756.4459,109.577
756.6792,109.337
756.9125,107.547
757.1458,106.817
757.3791,107.587
757.6124000000001,108.513
757.8457000000001,107.903
758.0790000000001,107.143
758.3123,107.293
758.5456,107.193
758.7789,105.727
759.0122,107.347
759.2455,106.133
759.4788000000001,105.553
759.7121000000001,106.183
759.9454000000001,105.68
760.1787,105.293
760.412,105.64
760.6453,104.843
760.8786,103.593
761.1119,104.327
761.3452000000001,104.417
761.5785000000001,103.607
761.8118000000001,103.083
762.0451,103.153
762.2784,103.18
762.5117,103.06
762.745,101.703
762.9783,100.663
763.2116000000001,101.777
763.4449000000001,102.367
763.6782000000001,101.753
763.9115,101.103
764.1448,100.187
764.3781,99.947
764.6114,100.197
764.8447,100.167
765.0780000000001,100.31
765.3113000000001,99.83
765.5446000000001,99.047
765.7779,98.577
766.0112,98.1
766.2445,97.44
766.4778,98.663
766.7111,97.963
766.9444000000001,97.803
767.1777000000001,97.303
767.4110000000001,96.707
767.6443,97.377
767.8776,97.32
768.1109,95.69
768.3442,94.57
768.5775,95.31
768.8108000000001,95.263
769.0441000000001,95.023
769.2774000000001,94.853
769.5107,93.803
769.744,92.977
769.9773,93.323
770.2106,94.733
770.4439000000001,93.553
770.6772000000001,92.943
770.9105000000001,92.533
771.1438,92.34
771.3771,92.65
771.6104,92.477
771.8437,91.117
772.077,91.957
772.3103000000001,90.787
772.5436000000001,90.03
772.7769000000001,89.72
773.0102,89.737
773.2435,89.817
773.4768,89.26
773.7101,87.947
773.9434,87.513
774.1767000000001,86.623
774.4100000000001,87.15
774.6433000000001,88.54
774.8766,87.753
775.1099,86.133
775.3432,85.343
775.5765,85.263
775.8098,85.553
776.0431000000001,83.983
776.2764000000001,83.923
776.5097000000001,83.823
776.743,82.58
776.9763,83.02
777.2096,83.763
777.4429,82.903
777.6762,82.02
777.9095000000001,81.61
778.1428000000001,80.707
778.3761000000001,80.457
778.6094,81.073
778.8427,80.923
779.076,79.84
779.3093,78.59
779.5426,80.233
779.7759000000001,80.473
780.0092000000001,79.583
780.2425000000001,78.403
780.4758,78.393
780.7091,78.513
780.9424,77.947
781.1757,77.337
781.409,78.757
781.6423000000001,77.543
781.8756000000001,77.1
782.1089000000001,77.937
782.3422,78.413
782.5755,78.01
782.8088,77.057
783.0421,76.533
783.2754,76.463
783.5087000000001,75.88
783.7420000000001,75.127
783.9753000000001,74.477
784.2086,73.91
784.4419,73.71
784.6752,72.703
784.9085,70.583
785.1418,71.36
785.3751000000001,71.097
785.6084000000001,69.11
785.8417000000001,67.55
786.075,66.833
786.3083,66.323
786.5416,65.397
786.7749,62.867
787.0082,61.7
787.2415000000001,59.64
787.4748000000001,58.227
787.7081000000001,56.433
787.9414,54.067
788.1747,53.803
788.408,53.12
788.6413,50.397
788.8746,48.177
789.1079000000001,48.467
789.3412000000001,46.743
789.5745000000001,45.14
789.8078,44.897
790.0411,43.8
790.2744,42.287
790.5077,42.383
790.7410000000001,42.503
790.9743000000001,41.843
791.2076000000001,41.503
791.4409,40.257
791.6742,38.363
791.9075,38.72
792.1408,39.367
792.3741,38.59
792.6074000000001,38.857
792.8407000000001,39.137
793.0740000000001,38.253
793.3073,36.773
793.5406,36.337
793.7739,36.727
794.0072,36.163
794.2405,35.263
794.4738000000001,36.333
794.7071000000001,37.237
794.9404000000001,36.573
795.1737,34.7
795.407,34.02
795.6403,33.897
795.8736,33.91
796.1069,34.14
796.3402000000001,34.333
796.5735000000001,34.23
796.8068000000001,33.82
797.0401,33.457
797.2734,32.92
797.5067,32.85
797.74,32.163
797.9733,31.483
798.2066000000001,31.483
798.4399000000001,32.603
798.6732000000001,32.56
798.9065,31.713
799.1398,31.24
799.3731,31.1
799.6064,30.607
799.8397,30.41
800.0730000000001,31.117
800.3063000000001,29.8
800.5396000000001,29.597
800.7729,30.163
801.0062,30.173
801.2395,29.927
801.4728,29.793
801.7061,29.363
801.9394000000001,29.063
802.1727000000001,28.203
802.4060000000001,27.623
802.6393,27.793
802.8726,27.513
803.1059,26.733
803.3392,26.247
803.5725,26.443
803.8058000000001,27.643
804.0391000000001,27.227
804.2724000000001,26.12
804.5057,26.153
804.739,26.577
804.9723,25.75
805.2056,24.45
805.4389,24.743
805.6722000000001,24.923
805.9055000000001,24.72
806.1388000000001,24.463
806.3721,23.733
806.6054,23.32
806.8387,24.787
807.072,24.767
807.3053,22.903
807.5386000000001,23.403
807.7719000000001,24.29
808.0052000000001,23.93
808.2385,22.547
808.4718,21.477
808.7051,21.883
808.9384,22.277
809.1717000000001,22.34
809.4050000000001,23.63
809.6383000000001,24.343
809.8716000000001,23.77
810.1049,22.133
810.3382,21.583
810.5715,22.493
810.8048,22.683
811.0381000000001,22.453
811.2714000000001,22.113
811.5047000000001,22.927
811.738,22.95
811.9713,22.323
812.2046,21.9
812.4379,22.76
812.6712,22.597
812.9045000000001,21.503
813.1378000000001,22.523
813.3711000000001,22.237
813.6044,21.373
813.8377,21.663
814.071,21.207
814.3043,20.317
814.5376,20.94
814.7709000000001,21.663
815.0042000000001,21.26
815.2375000000001,21.557
815.4708,21.05
815.7041,20.477
815.9374,20.843
816.1707,21.243
816.404,21.097
816.6373000000001,20.773
816.8706000000001,21.477
817.1039000000001,21.693
817.3372,21.62
817.5705,20.763
817.8038,19.957
818.0371,19.747
818.2704,20.393
818.5037000000001,20.823
818.7370000000001,21.91
818.9703000000001,22.15
819.2036,21.96
819.4369,21.59
819.6702,20.29
819.9035,19.37
820.1368,20.043
820.3701000000001,19.953
820.6034000000001,20.277
820.8367000000001,19.94
821.07,19.58
821.3033,19.78
821.5366,20.357
821.7699,20.727
822.0032,20.127
822.2365000000001,19.4
822.4698000000001,19.27
822.7031000000001,18.857
822.9364,19.14
823.1697,19.29
823.403,18.693
823.6363,19.337
823.8696,19.897
824.1029000000001,19.53
824.3362000000001,18.9
824.5695000000001,18.903
824.8028,18.61
825.0361,17.973
825.2694,17.6
825.5027,17.667
825.736,18.087
825.9693000000001,18.38
826.2026000000001,18.583
826.4359000000001,18.68
826.6692,18.76
826.9025,18.623
827.1358,17.937
827.3691,17.073
827.6024,16.927
827.8357000000001,17.257
828.0690000000001,18.31
828.3023000000001,17.783
828.5356,18.147
828.7689,18.5
829.0022,18.03
829.2355,17.44
829.4688000000001,16.237
829.7021000000001,15.183
829.9354000000001,14.62
830.1687000000001,16.253
830.402,17.283
830.6353,16.69
830.8686,15.603
831.1019,16.007
831.3352000000001,16.22
831.5685000000001,15.34
831.8018000000001,15.777
832.0351,15.647
832.2684,15.977
832.5017,16.207
832.735,15.513
832.9683,15.41
833.2016000000001,15.147
833.4349000000001,14.587
833.6682000000001,14.263
833.9015,15.53
834.1348,15.76
834.3681,15.213
834.6014,14.97
834.8347,14.51
835.0680000000001,13.543
835.3013000000001,13.087
835.5346000000001,13.883
835.7679,13.987
836.0012,14.343
836.2345,14.293
836.4678,13.933
836.7011,13.983
836.9344000000001,14.2
837.1677000000001,14.353
837.4010000000001,13.237
837.6343,13.867
837.8676,14.02
838.1009,13.377
838.3342,13.647
838.5675,14.27
838.8008000000001,14.193
839.0341000000001,13.373
839.2674000000001,13.367
839.5007,13.617
839.734,13.47
839.9673,13.34
840.2006,13.387
840.4339,13.517
840.6672000000001,13.01
840.9005000000001,12.527
841.1338000000001,13.593
841.3671,13.113
841.6004,12.937
841.8337,12.877
842.067,12.973
842.3003,13.443
842.5336000000001,13.55
842.7669000000001,12.683
843.0002000000001,12.94
843.2335,13.867
843.4668,14.267
843.7001,13.617
843.9334,12.627
844.1667,12.75
844.4000000000001,12.637
844.6333000000001,12.343
844.8666000000001,12.58
845.0999,11.713
845.3332,11.96
845.5665,11.663
845.7998,10.96
846.0331,11.253
846.2664000000001,12.593
846.4997000000001,12.657
846.7330000000001,12.733
846.9663,14.113
847.1996,14.563
847.4329,13.24
847.6662,12.477
847.8995,12.013
848.1328000000001,11.693
848.3661000000001,11.51
848.5994000000001,12.863
848.8327,12.94
849.066,12.84
849.2993,12.667
849.5326,12.64
849.7659000000001,12.583
849.9992000000001,12.313
850.2325000000001,11.783
850.4658000000001,11.403
850.6991,11.737
850.9324,12.19
851.1657,12.47
851.399,12.733
851.6323000000001,12.92
851.8656000000001,12.193
852.0989000000001,11.193
852.3322000000001,10.967
852.5655,11.56
852.7988,11.85
853.0321,12.457
853.2654,12.937
853.4987000000001,12.113
853.7320000000001,11.123
853.9653000000001,11.26
854.1986,11.69
854.4319,12.15
854.6652,11.803
854.8985,10.867
855.1318,10.29
855.3651000000001,10.633
855.5984000000001,11.07
855.8317000000001,11.513
856.065,13.033
856.2983,13.617
856.5316,13.503
856.7649,12.267
856.9982,11.153
857.2315000000001,11.863
857.4648000000001,12.097
857.6981000000001,11.177
857.9314,12.003
858.1647,11.68
858.398,11.527
858.6313,11.59
858.8646,11.457
859.0979000000001,11.71
859.3312000000001,11.697
859.5645000000001,11.023
859.7978,11.107
860.0311,11.34
860.2644,11.757
860.4977,11.43
860.731,10.553
860.9643000000001,11.263
861.1976000000001,11.583
861.4309000000001,10.557
861.6642,11.017
861.8975,12.08
862.1308,12.647
862.3641,11.603
862.5974,10.353
862.8307000000001,10.213
863.0640000000001,10.743
863.2973000000001,11.097
863.5306,12.113
863.7639,11.65
863.9972,11.497
864.2305,10.957
864.4638,10.11
864.6971000000001,10.22
864.9304000000001,10.737
865.1637000000001,10.71
865.397,11.67
865.6303,11.447
865.8636,11.647
866.0969,11.393
866.3302,10.987
866.5635000000001,10.97
866.7968000000001,11.03
867.0301000000001,10.603
867.2634,10.617
867.4967,10.977
867.73,10.587
867.9633,9.853
868.1966,9.527
868.4299000000001,10.517
868.6632000000001,11.34
868.8965000000001,10.907
869.1298,10.453
869.3631,10.123
869.5964,10.317
869.8297,10.013
870.0630000000001,8.943
870.2963000000001,8.723
870.5296000000001,9.5
870.7629000000001,9.49
870.9962,10.27
871.2295,10.137
871.4628,10.023
871.6961,10.213
871.9294000000001,10.883
872.1627000000001,11.117
872.3960000000001,10.52
872.6293000000001,9.76
872.8626,9.547
873.0959,9.517
873.3292,9.61
873.5625,9.82
873.7958000000001,9.723
874.0291000000001,9.37
874.2624000000001,9.113
874.4957,9.22
874.729,10.24
874.9623,9.913
875.1956,9.35
875.4289,9.14
875.6622000000001,9.22
875.8955000000001,9.017
876.1288000000001,9.097
876.3621,9.74
876.5954,10.523
876.8287,9.897
877.062,9.493
877.2953,9.757
877.5286000000001,9.517
877.7619000000001,8.93
877.9952000000001,8.653
878.2285,9.313
878.4618,10.657
878.6951,10.267
878.9284,10.363
879.1617,10.137
879.3950000000001,9.27
879.6283000000001,9.153
879.8616000000001,9.087
880.0949,8.22
880.3282,8.98
880.5615,9.313
880.7948,9.593
881.0281,9.863
881.2614000000001,9.917
881.4947000000001,9.997
881.7280000000001,9.337
881.9613,8.803
882.1946,8.853
882.4279,8.39
882.6612,8.177
882.8945,8.377
883.1278000000001,9.28
883.3611000000001,9.817
883.5944000000001,9.913
883.8277,9.633
884.061,9.15
884.2943,9.133
884.5276,8.477
884.7609,7.723
884.9942000000001,7.697
885.2275000000001,8.383
885.4608000000001,8.643
885.6941,8.653
885.9274,8.543
886.1607,9.42
886.394,9.85
886.6273,9.11
886.8606000000001,8.493
887.0939000000001,8.863
887.3272000000001,9.047
887.5605,8.477
887.7938,7.323
888.0271,6.893
888.2604,6.277
888.4937000000001,6.52
888.7270000000001,7.317
888.9603000000001,7.103
889.1936000000001,7.073
889.4269,7.897
889.6602,9.0
889.8935,8.637
890.1268,8.27
890.3601000000001,8.013
890.5934000000001,7.657
890.8267000000001,8.183
891.0600000000001,8.397
891.2933,7.92
891.5266,7.767
891.7599,7.327
891.9932,7.62
892.2265000000001,7.397
892.4598000000001,7.047
892.6931000000001,7.477
892.9264000000001,8.0
893.1597,7.363
893.393,6.707
893.6263,7.38
893.8596,8.467
894.0929000000001,8.51
894.3262000000001,7.773
894.5595000000001,7.54
894.7928,7.387
895.0261,6.867
895.2594,7.753
895.4927,8.507
895.726,9.18
895.9593000000001,8.533
896.1926000000001,6.797
896.4259000000001,6.613
896.6592,6.917
896.8925,6.907
897.1258,6.37
897.3591,6.243
897.5924,7.243
897.8257000000001,8.06
898.0590000000001,8.113
898.2923000000001,8.687
898.5256,8.77
898.7589,7.653
898.9922,7.317
899.2255,7.637
899.4588,7.83
899.6921000000001,7.977
899.9254000000001,8.22
900.1587000000001,7.66
900.392,6.977
900.6253,6.967
900.8586,7.41
901.0919,7.023
901.3252,6.623
901.5585000000001,6.76
901.7918000000001,7.057
902.0251000000001,6.843
902.2584,6.46
902.4917,6.183
902.725,6.287
902.9583,6.65
903.1916,7.05
903.4249000000001,7.05
903.6582000000001,6.777
903.8915000000001,6.467
904.1248,6.383
904.3581,6.363
904.5914,7.083
904.8247,7.067
905.058,6.073
905.2913000000001,4.82
905.5246000000001,4.833
905.7579000000001,5.38
905.9912,5.327
906.2245,5.237
906.4578,5.767
906.6911,5.787
906.9244,5.4
907.1577000000001,4.893
907.3910000000001,4.903
907.6243000000001,5.243
907.8576,5.503
908.0909,5.513
908.3242,6.183
908.5575,6.87
908.7908000000001,6.537
909.0241000000001,5.507
909.2574000000001,4.613
909.4907000000001,4.603
909.724,4.65
909.9573,4.547
910.1906,4.93
910.4239,5.01
910.6572000000001,5.12
910.8905000000001,5.373
911.1238000000001,5.863
911.3571000000001,6.033
911.5904,5.343
911.8237,4.567
912.057,4.45
912.2903,4.01
912.5236000000001,3.86
912.7569000000001,4.667
912.9902000000001,5.487
913.2235000000001,5.733
913.4568,5.023
913.6901,4.45
913.9234,4.383
914.1567,4.863
914.3900000000001,5.14
914.6233000000001,5.3
914.8566000000001,5.297
915.0899000000001,5.033
915.3232,4.673
915.5565,4.103
915.7898,4.65
916.0231,4.81
916.2564000000001,4.497
916.4897000000001,4.123
916.7230000000001,4.16
916.9563,3.923
917.1896,4.067
917.4229,4.61
917.6562,5.417
917.8895,5.38
918.1228000000001,5.327
918.3561000000001,5.39
918.5894000000001,5.087
918.8227,4.827
919.056,4.447
919.2893,4.293
919.5226,4.29
919.7559,4.587
919.9892000000001,4.813
920.2225000000001,4.77
920.4558000000001,4.553
920.6891,4.497
920.9224,4.413
921.1557,4.29
921.389,4.607
921.6223,4.6
921.8556000000001,4.767
922.0889000000001,4.743
922.3222000000001,4.543
922.5555,4.547
922.7888,4.413
923.0221,3.873
923.2554,3.887
923.4887,4.397
923.7220000000001,4.857
923.9553000000001,5.14
924.1886000000001,5.54
924.4219,5.623
924.6552,5.233
924.8885,4.77
925.1218,4.0
925.3551,3.717
925.5884000000001,3.95
925.8217000000001,4.53
926.0550000000001,5.303
926.2883,5.543
926.5216,5.227
926.7549,4.66
926.9882,4.28
927.2215,3.973
927.4548000000001,3.8
927.6881000000001,4.243
927.9214000000001,5.07
928.1547,5.23
928.388,5.043
928.6213,5.41
928.8546,5.26
929.0879000000001,4.963
929.3212000000001,5.13
929.5545000000001,5.797
929.7878000000001,6.187
930.0211,5.837
930.2544,5.173
930.4877,4.81
930.721,4.437
930.9543000000001,4.867
931.1876000000001,5.51
931.4209000000001,5.82
931.6542000000001,5.543
931.8875,5.84
932.1208,6.237
932.3541,5.99
932.5874,5.943
932.8207000000001,6.053
933.0540000000001,6.63
933.2873000000001,6.273
933.5206000000001,5.64
933.7539,6.03
933.9872,6.077
934.2205,4.84
934.4538,4.183
934.6871000000001,5.11
934.9204000000001,6.06
935.1537000000001,6.56
935.3870000000001,7.307
935.6203,8.397
935.8536,7.92
936.0869,6.207
936.3202,5.393
936.5535000000001,4.937
936.7868000000001,4.973
937.0201000000001,5.917
937.2534,6.763
937.4867,6.85
937.72,6.353
937.9533,5.993
938.1866,5.847
938.4199000000001,5.79
938.6532000000001,5.59
938.8865000000001,5.467
939.1198,5.457
939.3531,5.88
939.5864,5.993
939.8197,5.923
940.053,6.143
940.2863000000001,6.03
940.5196000000001,5.757
940.7529000000001,5.677
940.9862,5.917
941.2195,5.997
941.4528,5.81
941.6861,5.513
941.9194,6.183
942.1527000000001,6.157
942.3860000000001,5.87
942.6193000000001,5.447
942.8526,5.16
943.0859,5.377
943.3192,5.733
943.5525,5.553
943.7858,6.143
944.0191000000001,5.81
944.2524000000001,5.433
944.4857000000001,5.473
944.719,5.73
944.9523,5.823
945.1856,5.713
945.4189,5.647
945.6522,4.777
945.8855000000001,5.293
946.1188000000001,6.053
946.3521000000001,5.953
946.5854,5.49
946.8187,6.133
947.052,6.487
947.2853,5.493
947.5186,5.157
947.7519000000001,5.617
947.9852000000001,5.867
948.2185000000001,5.92
948.4518,5.853
948.6851,5.733
948.9184,5.6
949.1517,5.433
949.3850000000001,6.463
949.6183000000001,6.39
949.8516000000001,6.933
950.0849000000001,7.29
950.3182,7.073
950.5515,7.74
950.7848,7.813
951.0181,6.567
951.2514000000001,5.41
951.4847000000001,5.56
951.7180000000001,5.62
951.9513000000001,6.237
952.1846,6.883
952.4179,7.177
952.6512,6.593
952.8845,5.633
953.1178000000001,5.407
953.3511000000001,5.063
953.5844000000001,5.023
953.8177000000001,5.603
954.051,6.22
954.2843,6.673
954.5176,6.627
954.7509,6.673
954.9842000000001,7.847
955.2175000000001,8.103
955.4508000000001,7.56
955.6841000000001,6.7
955.9174,6.497
956.1507,6.987
956.384,7.27
956.6173,7.187
956.8506000000001,7.14
957.0839000000001,6.483
957.3172000000001,6.267
957.5505,6.68
957.7838,6.98
958.0171,6.807
958.2504,6.693
958.4837,6.95
958.7170000000001,8.007
958.9503000000001,8.087
959.1836000000001,7.657
959.4169,6.63
959.6502,6.127
959.8835,6.82
960.1168,7.097
960.3501,6.8
960.5834000000001,6.7
960.8167000000001,6.75
961.0500000000001,7.007
961.2833,7.313
961.5166,7.727
961.7499,8.11
961.9832,8.013
962.2165,7.573
962.4498000000001,7.33
962.6831000000001,7.92
962.9164000000001,7.953
963.1497,7.47
963.383,7.35
963.6163,7.56
963.8496,7.557
964.0829,7.28
964.3162000000001,7.177
964.5495000000001,7.49
964.7828000000001,7.647
965.0161,8.393
965.2494,9.48
965.4827,9.37
965.716,8.613
965.9493,8.273
966.1826000000001,8.877
966.4159000000001,9.213
966.6492000000001,9.21
966.8825,9.007
967.1158,8.8
967.3491,8.91
967.5824,8.603
967.8157,8.337
968.0490000000001,8.14
968.2823000000001,8.43
968.5156000000001,8.657
968.7489,8.693
968.9822,8.77
969.2155,8.88
969.4488,8.737
969.6821000000001,8.707
969.9154000000001,9.417
970.1487000000001,9.13
970.3820000000001,9.167
970.6153,9.56
970.8486,9.797
971.0819,9.57
971.3152,9.353
971.5485000000001,9.283
971.7818000000001,9.85
972.0151000000001,10.187
972.2484000000001,10.573
972.4817,10.87
972.715,10.793
972.9483,10.567
973.1816,10.47
973.4149000000001,10.453
973.6482000000001,10.21
973.8815000000001,10.273
974.1148000000001,10.203
974.3481,10.12
974.5814,10.22
974.8147,11.113
975.048,11.02
975.2813000000001,10.833
975.5146000000001,11.337
975.7479000000001,11.787
975.9812000000001,11.56
976.2145,11.243
976.4478,11.163
976.6811,11.467
976.9144,11.67
977.1477000000001,11.683
977.3810000000001,10.747
977.6143000000001,11.333
977.8476,11.0
978.0809,10.383
978.3142,10.61
978.5475,11.033
978.7808,11.087
979.0141000000001,11.157
979.2474000000001,12.077
979.4807000000001,12.353
979.714,13.183
979.9473,13.12
980.1806,11.597
980.4139,10.753
980.6472,10.99
980.8805000000001,11.677
981.1138000000001,12.783
981.3471000000001,12.953
981.5804,12.847
981.8137,12.603
982.047,12.193
982.2803,12.23
982.5136,12.25
982.7469000000001,12.143
982.9802000000001,12.077
983.2135000000001,12.157
983.4468,12.417
983.6801,12.427
983.9134,12.023
984.1467,12.393
984.38,12.91
984.6133000000001,12.763
984.8466000000001,12.84
985.0799000000001,12.133
985.3132,11.82
985.5465,11.893
985.7798,12.183
986.0131,12.983
986.2464,13.11
986.4797000000001,12.487
986.7130000000001,12.367
986.9463000000001,12.963
987.1796,12.94
987.4129,12.343
987.6462,11.773
987.8795,11.927
988.1128000000001,12.233
988.3461000000001,12.14
988.5794000000001,13.62
988.8127000000001,14.147
989.046,14.247
989.2793,13.347
989.5126,12.203
989.7459,11.79
989.9792000000001,11.867
990.2125000000001,12.3
990.4458000000001,13.167
990.6791000000001,13.71
990.9124,14.147
991.1457,14.24
991.379,13.75
991.6123,13.353
991.8456000000001,13.353
992.0789000000001,13.637
992.3122000000001,14.763
992.5455000000001,14.67
992.7788,14.183
993.0121,13.213
993.2454,12.443
993.4787,13.023
993.7120000000001,13.82
993.9453000000001,13.903
994.1786000000001,14.193
994.4119000000001,14.58
994.6452,14.437
994.8785,14.223
995.1118,14.673
995.3451,15.463
995.5784000000001,15.05
995.8117000000001,14.097
996.0450000000001,13.587
996.2783000000001,13.363
996.5116,13.307
996.7449,13.713
996.9782,13.783
997.2115,13.987
997.4448000000001,13.783
997.6781000000001,13.067
997.9114000000001,14.033
998.1447000000001,14.72
998.378,15.227
998.6113,14.837
998.8446,13.97
999.0779,13.12
999.3112000000001,12.757
999.5445000000001,12.613
999.7778000000001,12.8
1000.0111,12.54
1000.2444,12.327
1000.4777,12.883
1000.711,13.907
1000.9443,14.657
1001.1776000000001,14.533
1001.4109000000001,14.213
1001.6442000000001,13.13
1001.8775,13.45
1002.1108,13.357
1002.3441,12.983
1002.5774,12.703
1002.8107,12.983
1003.0440000000001,13.46
1003.2773000000001,13.75
1003.5106000000001,14.51
1003.7439,14.763
1003.9772,14.16
1004.2105,13.14
1004.4438,12.477
1004.6771,12.153
1004.9104000000001,12.703
1005.1437000000001,13.77
1005.3770000000001,15.593
1005.6103,15.31
1005.8436,14.893
1006.0769,15.003
1006.3102,15.507
1006.5435,15.827
1006.7768000000001,15.303
1007.0101000000001,14.813
1007.2434000000001,14.333
1007.4767,14.68
1007.71,15.537
1007.9433,16.367
1008.1766,16.55
1008.4099000000001,16.163
1008.6432000000001,15.65
1008.8765000000001,15.723
1009.1098000000001,15.643
1009.3431,15.787
1009.5764,16.43
1009.8097,17.627
1010.043,18.36
1010.2763000000001,19.047
1010.5096000000001,18.68
1010.7429000000001,17.543
1010.9762000000001,16.523
1011.2095,16.297
1011.4428,16.037
1011.6761,15.87
1011.9094,15.817
1012.1427000000001,15.873
1012.3760000000001,15.82
1012.6093000000001,15.863
1012.8426000000001,0.0
