Wavelength,Gray_Value
72.177,30.32
72.4103,30.453
72.6436,30.07
72.8769,29.667
73.1102,29.777
73.3435,30.287
73.5768,30.053
73.8101,29.473
74.0434,28.84
74.2767,28.92
74.51,29.663
74.7433,29.47
74.9766,28.857
75.2099,29.373
75.4432,29.86
75.6765,28.96
75.9098,28.253
76.1431,28.503
76.3764,28.703
76.6097,28.41
76.843,27.903
77.0763,27.737
77.3096,27.623
77.5429,27.143
77.7762,28.07
78.0095,28.447
78.2428,27.82
78.4761,26.963
78.7094,26.23
78.9427,26.213
79.176,26.357
79.4093,26.043
79.6426,27.027
79.8759,26.687
80.1092,26.773
80.3425,26.673
80.5758,26.227
80.8091,26.2
81.04240000000001,26.107
81.2757,25.54
81.50900000000001,26.27
81.7423,26.007
81.97560000000001,25.517
82.2089,25.667
82.44220000000001,25.28
82.6755,24.907
82.90880000000001,24.263
83.1421,24.287
83.37540000000001,24.367
83.60870000000001,24.437
83.84200000000001,24.697
84.07530000000001,24.9
84.30860000000001,25.007
84.54190000000001,25.543
84.77520000000001,25.307
85.00850000000001,24.29
85.24180000000001,23.68
85.47510000000001,23.667
85.70840000000001,23.893
85.94170000000001,23.847
86.17500000000001,22.963
86.40830000000001,22.823
86.64160000000001,23.033
86.87490000000001,22.8
87.10820000000001,23.29
87.34150000000001,24.28
87.57480000000001,24.45
87.80810000000001,24.103
88.04140000000001,23.893
88.27470000000001,23.703
88.50800000000001,23.11
88.74130000000001,22.517
88.97460000000001,22.383
89.20790000000001,21.867
89.44120000000001,21.64
89.67450000000001,22.647
89.90780000000001,23.653
90.14110000000001,23.757
90.37440000000001,23.273
90.60770000000001,23.077
90.84100000000001,22.43
91.07430000000001,22.397
91.30760000000001,21.82
91.54090000000001,21.337
91.77420000000001,21.857
92.00750000000001,22.957
92.24080000000001,22.467
92.4741,21.603
92.7074,21.35
92.9407,21.677
93.174,21.72
93.4073,21.467
93.6406,21.683
93.8739,22.463
94.1072,22.487
94.3405,21.87
94.5738,22.06
94.8071,22.36
95.0404,22.11
95.2737,21.607
95.507,21.623
95.7403,22.433
95.9736,22.153
96.2069,20.897
96.4402,21.58
96.6735,21.92
96.9068,22.25
97.1401,21.48
97.3734,21.053
97.6067,21.33
97.84,21.6
98.0733,21.217
98.3066,21.143
98.5399,21.053
98.7732,21.033
99.0065,21.443
99.2398,21.517
99.4731,21.39
99.7064,21.08
99.93970000000002,20.97
100.173,20.92
100.40630000000002,21.487
100.6396,21.357
100.87290000000002,20.82
101.1062,20.567
101.33950000000002,20.187
101.5728,20.547
101.80610000000001,21.41
102.0394,21.66
102.27270000000001,21.33
102.506,20.877
102.73930000000001,21.043
102.9726,21.087
103.20590000000001,21.13
103.4392,20.667
103.67250000000001,20.33
103.9058,20.743
104.13910000000001,20.993
104.3724,20.733
104.60570000000001,20.47
104.839,20.2
105.07230000000001,20.38
105.3056,20.627
105.53890000000001,20.773
105.7722,20.533
106.00550000000001,20.12
106.2388,19.473
106.47210000000001,18.583
106.7054,18.393
106.93870000000001,19.26
107.17200000000001,21.117
107.40530000000001,22.447
107.63860000000001,21.633
107.87190000000001,21.29
108.10520000000001,20.673
108.33850000000001,20.227
108.57180000000001,20.05
108.80510000000001,20.623
109.03840000000001,20.55
109.27170000000001,20.003
109.50500000000001,19.647
109.73830000000001,19.59
109.97160000000001,19.257
110.20490000000001,18.713
110.43820000000001,18.43
110.67150000000001,19.497
110.90480000000001,19.867
111.13810000000001,18.983
111.37140000000001,17.88
111.60470000000001,17.643
111.83800000000001,17.497
112.07130000000001,17.563
112.30460000000001,17.83
112.53790000000001,18.52
112.77120000000001,18.163
113.00450000000001,17.02
113.23780000000001,17.727
113.4711,17.5
113.7044,18.38
113.9377,18.487
114.171,17.66
114.4043,18.37
114.6376,18.933
114.8709,17.783
115.1042,17.183
115.3375,17.803
115.5708,18.49
115.8041,18.23
116.0374,17.08
116.2707,17.54
116.504,18.19
116.7373,17.957
116.9706,17.727
117.2039,18.067
117.43720000000002,17.7
117.6705,16.867
117.90380000000002,16.753
118.1371,17.377
118.37040000000002,18.067
118.6037,18.123
118.83700000000002,18.47
119.0703,18.357
119.30360000000002,17.89
119.5369,17.58
119.77020000000002,17.397
120.0035,17.577
120.23680000000002,16.877
120.4701,16.527
120.70340000000002,16.337
120.9367,16.43
121.17000000000002,17.02
121.4033,17.833
121.63660000000002,18.03
121.8699,18.153
122.10320000000002,17.563
122.3365,16.323
122.56980000000001,15.647
122.8031,15.553
123.03640000000001,15.503
123.2697,15.68
123.50300000000001,16.22
123.7363,16.97
123.96960000000001,17.24
124.2029,17.347
124.43620000000001,17.047
124.6695,16.583
124.90280000000001,16.55
125.1361,16.683
125.36940000000001,16.6
125.6027,17.027
125.83600000000001,17.213
126.0693,16.657
126.30260000000001,16.89
126.5359,16.72
126.76920000000001,16.423
127.00250000000001,16.39
127.23580000000001,16.117
127.46910000000001,15.97
127.70240000000001,15.703
127.93570000000001,15.623
128.169,16.397
128.40230000000003,15.727
128.6356,15.193
128.8689,15.76
129.1022,16.77
129.33550000000002,17.257
129.5688,16.85
129.8021,16.193
130.0354,15.253
130.26870000000002,14.697
130.502,15.163
130.7353,15.997
130.9686,16.553
131.20190000000002,17.75
131.4352,17.427
131.6685,15.323
131.9018,14.027
132.13510000000002,14.263
132.3684,15.287
132.6017,15.837
132.835,15.543
133.06830000000002,15.823
133.3016,16.237
133.5349,15.193
133.7682,15.707
134.00150000000002,15.413
134.2348,15.037
134.4681,15.077
134.7014,15.063
134.93470000000002,14.79
135.168,14.653
135.4013,14.73
135.6346,15.09
135.86790000000002,14.76
136.1012,14.187
136.3345,13.8
136.5678,14.05
136.80110000000002,14.627
137.0344,14.477
137.2677,13.76
137.501,14.3
137.73430000000002,14.613
137.9676,15.137
138.2009,15.7
138.4342,15.3
138.66750000000002,14.277
138.9008,13.853
139.1341,14.163
139.3674,15.64
139.60070000000002,15.423
139.834,15.353
140.0673,15.393
140.3006,15.007
140.53390000000002,15.087
140.7672,15.347
141.0005,15.137
141.2338,14.213
141.46710000000002,14.497
141.7004,14.747
141.93370000000002,14.857
142.16700000000003,15.06
142.40030000000002,15.513
142.6336,15.6
142.86690000000002,15.547
143.10020000000003,14.98
143.33350000000002,15.327
143.5668,16.05
143.80010000000001,16.383
144.03340000000003,16.033
144.26670000000001,15.87
144.5,15.82
144.7333,15.363
144.96660000000003,15.48
145.1999,15.77
145.4332,15.85
145.6665,15.64
145.89980000000003,14.737
146.1331,14.153
146.3664,14.103
146.5997,14.797
146.83300000000003,15.77
147.0663,15.297
147.2996,15.087
147.5329,15.097
147.76620000000003,14.907
147.9995,15.23
148.2328,15.243
148.4661,14.76
148.69940000000003,14.767
148.9327,15.517
149.166,15.66
149.3993,15.537
149.63260000000002,14.927
149.8659,14.883
150.0992,14.33
150.3325,13.833
150.56580000000002,13.41
150.7991,13.723
151.0324,14.027
151.2657,14.177
151.49900000000002,14.253
151.7323,13.873
151.9656,14.043
152.1989,14.9
152.43220000000002,16.063
152.6655,16.33
152.8988,16.277
153.1321,16.097
153.36540000000002,15.557
153.5987,14.757
153.832,13.793
154.0653,13.003
154.29860000000002,13.187
154.5319,12.55
154.7652,12.267
154.9985,12.763
155.23180000000002,13.247
155.4651,13.273
155.6984,12.99
155.9317,12.953
156.16500000000002,14.597
156.3983,15.407
156.6316,15.367
156.8649,14.257
157.09820000000002,13.097
157.3315,12.69
157.5648,13.42
157.7981,14.983
158.03140000000002,16.027
158.2647,16.003
158.498,16.123
158.7313,15.203
158.96460000000002,13.647
159.1979,13.787
159.4312,14.66
159.6645,14.38
159.89780000000002,15.567
160.1311,16.19
160.3644,15.587
160.5977,14.687
160.83100000000002,14.44
161.0643,13.363
161.2976,13.187
161.5309,14.663
161.76420000000002,17.217
161.9975,17.42
162.23080000000002,17.09
162.46410000000003,16.1
162.69740000000002,14.693
162.9307,14.793
163.16400000000002,15.45
163.39730000000003,15.69
163.63060000000002,16.137
163.8639,16.2
164.09720000000002,15.867
164.33050000000003,15.437
164.56380000000001,15.467
164.7971,15.737
165.03040000000001,15.747
165.26370000000003,15.377
165.497,16.007
165.7303,15.397
165.9636,15.37
166.19690000000003,15.99
166.4302,16.51
166.6635,16.777
166.8968,15.98
167.13010000000003,14.687
167.3634,15.917
167.5967,16.577
167.83,16.333
168.06330000000003,15.74
168.2966,15.593
168.5299,16.017
168.7632,15.687
168.99650000000003,15.307
169.2298,16.293
169.4631,15.863
169.6964,15.743
169.92970000000003,16.393
170.163,16.627
170.3963,16.353
170.6296,15.46
170.86290000000002,14.617
171.0962,14.997
171.3295,15.53
171.5628,16.513
171.79610000000002,17.6
172.0294,17.317
172.2627,16.357
172.496,15.067
172.72930000000002,14.653
172.9626,15.883
173.1959,15.943
173.4292,16.55
173.66250000000002,17.273
173.8958,17.497
174.1291,17.157
174.3624,16.937
174.59570000000002,17.297
174.829,17.283
175.0623,17.553
175.2956,17.033
175.52890000000002,16.027
175.7622,14.57
175.9955,14.59
176.2288,14.733
176.46210000000002,14.753
176.6954,16.247
176.9287,16.443
177.162,16.923
177.39530000000002,17.107
177.6286,16.633
177.8619,16.47
178.0952,16.27
178.32850000000002,15.77
178.5618,16.23
178.7951,17.35
179.0284,17.78
179.26170000000002,17.08
179.495,16.22
179.7283,16.35
179.9616,16.813
180.19490000000002,16.95
180.4282,16.74
180.6615,16.057
180.8948,15.923
181.12810000000002,16.503
181.3614,16.45
181.5947,15.927
181.82800000000003,15.683
182.06130000000002,16.147
182.2946,17.04
182.52790000000002,16.97
182.76120000000003,16.007
182.99450000000002,15.243
183.2278,15.667
183.46110000000002,16.697
183.69440000000003,16.863
183.92770000000002,16.17
184.161,16.62
184.39430000000002,16.573
184.62760000000003,16.82
184.86090000000002,17.02
185.0942,16.807
185.32750000000001,16.967
185.56080000000003,16.94
185.79410000000001,16.44
186.0274,16.687
186.2607,17.127
186.49400000000003,17.65
186.7273,17.18
186.9606,16.58
187.1939,17.373
187.42720000000003,17.16
187.6605,15.303
187.8938,15.657
188.1271,15.403
188.36040000000003,16.097
188.5937,17.683
188.827,18.587
189.0603,18.17
189.29360000000003,17.327
189.5269,16.437
189.7602,15.653
189.9935,16.737
190.22680000000003,17.33
190.4601,17.383
190.6934,16.25
190.9267,15.767
191.16000000000003,15.22
191.3933,15.633
191.6266,15.837
191.8599,16.23
192.09320000000002,16.903
192.3265,16.667
192.5598,15.897
192.7931,16.233
193.02640000000002,16.85
193.2597,16.23
193.493,16.43
193.7263,16.68
193.95960000000002,16.427
194.1929,16.297
194.4262,15.823
194.6595,15.293
194.89280000000002,15.173
195.1261,15.843
195.3594,16.663
195.5927,16.55
195.82600000000002,16.073
196.0593,15.777
196.2926,16.087
196.5259,16.763
196.75920000000002,16.633
196.9925,16.123
197.2258,15.797
197.4591,16.773
197.69240000000002,17.423
197.9257,16.517
198.159,15.987
198.3923,16.89
198.62560000000002,17.183
198.8589,16.41
199.0922,16.257
199.3255,15.94
199.55880000000002,15.51
199.7921,15.697
200.0254,16.057
200.25870000000003,16.28
200.49200000000002,16.207
200.7253,16.27
200.9586,16.69
201.19190000000003,17.333
201.42520000000002,17.21
201.6585,16.427
201.8918,15.997
202.12510000000003,16.573
202.35840000000002,16.293
202.5917,15.757
202.825,15.503
203.05830000000003,16.547
203.29160000000002,16.8
203.5249,16.603
203.7582,16.61
203.99150000000003,16.493
204.22480000000002,16.273
204.4581,16.41
204.6914,16.783
204.92470000000003,16.777
205.15800000000002,16.56
205.3913,16.607
205.6246,16.97
205.85790000000003,17.417
206.09120000000001,17.443
206.3245,17.01
206.5578,16.957
206.79110000000003,17.117
207.0244,17.507
207.2577,17.55
207.49099999999999,16.543
207.72430000000003,16.31
207.9576,16.73
208.1909,17.387
208.42419999999998,17.587
208.65750000000003,17.493
208.8908,17.247
209.1241,16.913
209.35739999999998,16.88
209.59070000000003,17.677
209.824,17.913
210.0573,17.27
210.29059999999998,17.587
210.52390000000003,16.387
210.7572,15.887
210.9905,16.457
211.22379999999998,17.21
211.45710000000003,17.427
211.6904,17.453
211.9237,17.347
212.15700000000004,16.537
212.39030000000002,16.413
212.6236,16.68
212.8569,16.753
213.09020000000004,16.533
213.32350000000002,16.95
213.5568,16.807
213.7901,16.147
214.02340000000004,15.36
214.25670000000002,16.15
214.49,16.377
214.7233,16.56
214.95660000000004,16.39
215.18990000000002,16.077
215.4232,15.807
215.6565,16.063
215.88980000000004,16.27
216.12310000000002,16.703
216.3564,17.443
216.5897,17.067
216.82300000000004,15.757
217.05630000000002,16.047
217.2896,16.297
217.5229,15.737
217.75620000000004,16.473
217.98950000000002,17.107
218.2228,16.947
218.4561,16.257
218.68940000000003,15.74
218.92270000000002,16.06
219.156,16.8
219.3893,17.027
219.62260000000003,16.573
219.85590000000002,16.81
220.0892,16.93
220.3225,16.9
220.55580000000003,16.25
220.78910000000002,15.73
221.0224,15.487
221.2557,15.907
221.48900000000003,17.067
221.72230000000002,17.307
221.9556,17.04
222.1889,16.127
222.42220000000003,15.447
222.65550000000002,15.483
222.8888,15.92
223.1221,16.237
223.35540000000003,16.167
223.58870000000002,16.313
223.822,15.803
224.0553,14.893
224.28860000000003,14.76
224.52190000000002,15.48
224.7552,16.12
224.9885,16.013
225.22180000000003,17.06
225.45510000000002,17.733
225.6884,17.923
225.9217,17.837
226.15500000000003,18.307
226.38830000000002,18.647
226.6216,17.97
226.8549,16.68
227.08820000000003,16.59
227.32150000000001,17.173
227.5548,17.053
227.7881,16.967
228.02140000000003,17.573
228.2547,17.87
228.488,17.58
228.72129999999999,17.673
228.95460000000003,16.63
229.1879,17.413
229.4212,17.39
229.65449999999998,16.98
229.88780000000003,17.29
230.1211,17.42
230.3544,17.333
230.58769999999998,17.313
230.82100000000003,18.38
231.0543,18.41
231.2876,18.343
231.52090000000004,18.153
231.75420000000003,17.88
231.9875,17.773
232.2208,17.807
232.45410000000004,18.073
232.68740000000003,17.797
232.9207,17.903
233.154,18.2
233.38730000000004,17.813
233.62060000000002,17.557
233.8539,18.96
234.0872,19.55
234.32050000000004,18.143
234.55380000000002,18.477
234.7871,18.443
235.0204,18.233
235.25370000000004,18.49
235.48700000000002,18.813
235.7203,19.013
235.9536,18.657
236.18690000000004,18.557
236.42020000000002,19.337
236.6535,19.08
236.8868,19.317
237.12010000000004,19.66
237.35340000000002,18.917
237.5867,18.55
237.82,18.373
238.05330000000004,17.953
238.28660000000002,18.49
238.5199,18.993
238.7532,19.527
238.98650000000004,19.337
239.21980000000002,18.693
239.4531,19.093
239.6864,19.67
239.91970000000003,19.487
240.15300000000002,19.03
240.3863,17.637
240.6196,17.337
240.85290000000003,18.36
241.08620000000002,18.91
241.3195,19.02
241.5528,18.837
241.78610000000003,18.523
242.01940000000002,18.517
242.2527,19.35
242.486,19.77
242.71930000000003,19.553
242.95260000000002,19.787
243.1859,20.357
243.4192,20.0
243.65250000000003,19.117
243.88580000000002,19.333
244.1191,19.63
244.3524,20.1
244.58570000000003,19.55
244.81900000000002,18.437
245.0523,18.957
245.2856,19.58
245.51890000000003,18.98
245.75220000000002,18.377
245.9855,18.553
246.2188,18.39
246.45210000000003,17.577
246.68540000000002,17.127
246.9187,19.047
247.152,20.113
247.38530000000003,19.4
247.61860000000001,18.447
247.8519,18.62
248.0852,19.063
248.31850000000003,19.09
248.55180000000001,19.143
248.7851,20.06
249.01839999999999,20.02
249.25170000000003,18.75
249.485,19.107
249.7183,19.95
249.95159999999998,19.907
250.18490000000003,18.277
250.4182,17.69
250.6515,19.297
250.88479999999998,20.21
251.11810000000003,19.473
251.3514,19.877
251.5847,19.35
251.81800000000004,19.013
252.05130000000003,18.71
252.2846,19.123
252.5179,20.003
252.75120000000004,20.027
252.98450000000003,19.007
253.2178,19.52
253.4511,19.447
253.68440000000004,19.39
253.91770000000002,19.76
254.151,20.023
254.3843,19.603
254.61760000000004,18.92
254.85090000000002,18.727
255.0842,19.007
255.3175,19.003
255.55080000000004,18.903
255.78410000000002,19.237
256.0174,19.547
256.2507,19.667
256.48400000000004,19.023
256.7173,18.577
256.9506,18.863
257.1839,19.443
257.41720000000004,19.963
257.6505,20.1
257.8838,19.56
258.1171,19.22
258.35040000000004,18.73
258.5837,18.86
258.817,20.28
259.0503,20.547
259.28360000000004,19.78
259.5169,19.317
259.7502,19.39
259.9835,19.817
260.21680000000003,19.78
260.4501,19.043
260.6834,18.113
260.9167,18.287
261.15000000000003,19.39
261.3833,20.093
261.6166,19.893
261.8499,20.617
262.08320000000003,20.933
262.3165,19.813
262.5498,18.767
262.7831,18.21
263.01640000000003,18.66
263.2497,19.86
263.483,20.147
263.7163,20.463
263.94960000000003,20.123
264.1829,19.05
264.4162,18.363
264.6495,18.007
264.88280000000003,19.03
265.1161,19.93
265.3494,19.657
265.5827,19.04
265.81600000000003,19.193
266.0493,18.773
266.2826,18.033
266.5159,19.18
266.74920000000003,19.89
266.9825,19.183
267.2158,18.73
267.4491,19.37
267.68240000000003,20.523
267.9157,20.77
268.149,20.543
268.3823,20.43
268.61560000000003,20.147
268.8489,19.68
269.0822,18.72
269.3155,18.967
269.5488,19.29
269.7821,19.27
270.0154,19.593
270.2487,20.293
270.482,20.33
270.7153,20.157
270.9486,19.95
271.1819,18.997
271.4152,18.813
271.6485,19.717
271.8818,21.137
272.11510000000004,21.043
272.3484,20.947
272.5817,21.17
272.815,20.973
273.04830000000004,20.123
273.2816,19.623
273.5149,19.843
273.7482,21.13
273.98150000000004,20.067
274.2148,19.49
274.4481,20.273
274.6814,21.29
274.91470000000004,21.597
275.148,21.133
275.3813,20.32
275.6146,20.203
275.84790000000004,20.317
276.0812,20.763
276.3145,20.647
276.5478,20.287
276.78110000000004,21.257
277.0144,21.41
277.2477,20.163
277.481,20.257
277.71430000000004,21.107
277.9476,20.837
278.1809,20.307
278.4142,20.34
278.64750000000004,20.033
278.8808,19.837
279.1141,20.127
279.3474,21.477
279.58070000000004,22.127
279.814,21.96
280.0473,21.133
280.2806,20.333
280.51390000000004,20.693
280.7472,20.83
280.9805,20.847
281.2138,20.317
281.44710000000003,20.96
281.6804,20.823
281.9137,20.683
282.147,21.06
282.38030000000003,20.883
282.6136,20.223
282.8469,20.353
283.0802,22.737
283.31350000000003,21.18
283.5468,19.83
283.7801,19.33
284.0134,18.807
284.24670000000003,19.367
284.48,20.45
284.7133,20.987
284.9466,21.123
285.17990000000003,22.53
285.4132,22.803
285.6465,21.84
285.8798,20.753
286.11310000000003,20.937
286.3464,21.35
286.5797,21.41
286.813,21.46
287.04630000000003,21.557
287.2796,22.07
287.5129,21.497
287.7462,20.3
287.97950000000003,20.86
288.2128,21.103
288.4461,19.91
288.6794,20.213
288.91270000000003,20.827
289.146,21.08
289.3793,20.88
289.6126,20.997
289.84590000000003,22.097
290.0792,21.827
290.3125,20.32
290.5458,20.07
290.7791,19.69
291.0124,20.42
291.2457,21.563
291.47900000000004,21.543
291.7123,20.957
291.9456,20.283
292.1789,20.02
292.41220000000004,21.197
292.6455,21.437
292.8788,21.543
293.1121,21.507
293.34540000000004,21.783
293.5787,22.31
293.812,22.117
294.0453,21.197
294.27860000000004,21.137
294.5119,21.223
294.7452,21.63
294.9785,22.433
295.21180000000004,22.273
295.4451,21.697
295.6784,20.66
295.9117,20.133
296.14500000000004,21.097
296.3783,21.427
296.6116,21.98
296.8449,22.583
297.07820000000004,22.52
297.3115,22.057
297.5448,21.603
297.7781,22.013
298.01140000000004,21.237
298.2447,20.15
298.478,20.67
298.7113,21.503
298.94460000000004,20.997
299.1779,21.333
299.4112,22.117
299.6445,21.61
299.87780000000004,22.253
300.1111,21.26
300.3444,20.363
300.5777,20.623
300.81100000000004,20.773
301.0443,20.937
301.2776,21.407
301.5109,22.433
301.74420000000003,23.69
301.9775,22.893
302.2108,21.77
302.4441,21.567
302.67740000000003,21.627
302.9107,21.057
303.144,20.31
303.3773,20.5
303.61060000000003,20.82
303.8439,20.083
304.0772,20.523
304.3105,21.79
304.54380000000003,21.827
304.7771,21.18
305.0104,20.993
305.2437,21.043
305.47700000000003,21.107
305.7103,20.793
305.9436,20.14
306.1769,20.27
306.41020000000003,20.697
306.6435,21.02
306.8768,20.57
307.1101,20.347
307.34340000000003,20.9
307.5767,19.893
307.81,19.417
308.0433,19.657
308.27660000000003,20.49
308.5099,21.26
308.7432,21.563
308.9765,21.193
309.20980000000003,20.9
309.4431,19.96
309.6764,19.403
309.9097,19.863
310.14300000000003,19.89
310.3763,20.21
310.6096,20.41
310.8429,20.787
311.07620000000003,20.727
311.3095,20.11
311.5428,19.25
311.77610000000004,18.247
312.0094,18.4
312.2427,20.287
312.476,21.243
312.70930000000004,20.193
312.9426,20.073
313.1759,21.16
313.4092,21.533
313.64250000000004,20.61
313.8758,19.957
314.1091,20.603
314.3424,21.443
314.57570000000004,21.967
314.809,22.18
315.0423,22.467
315.2756,21.373
315.50890000000004,20.19
315.7422,20.733
315.9755,21.97
316.2088,22.077
316.44210000000004,21.76
316.6754,22.597
316.9087,22.097
317.142,21.863
317.37530000000004,21.677
317.6086,21.513
317.8419,21.577
318.0752,21.443
318.30850000000004,21.033
318.5418,21.36
318.7751,21.443
319.0084,21.737
319.24170000000004,22.157
319.475,22.293
319.7083,21.847
319.9416,21.253
320.17490000000004,20.967
320.4082,22.817
320.6415,23.157
320.8748,22.71
321.10810000000004,22.033
321.3414,22.01
321.5747,21.977
321.808,21.56
322.04130000000004,21.76
322.2746,21.403
322.5079,21.71
322.7412,22.09
322.97450000000003,22.423
323.2078,22.23
323.4411,22.623
323.6744,22.59
323.90770000000003,21.903
324.141,22.307
324.3743,21.41
324.6076,20.447
324.84090000000003,20.563
325.0742,21.517
325.3075,22.087
325.5408,22.387
325.77410000000003,22.603
326.0074,22.413
326.2407,21.84
326.474,21.62
326.70730000000003,21.52
326.9406,21.627
327.1739,22.457
327.4072,22.59
327.64050000000003,21.86
327.8738,22.773
328.1071,21.69
328.34040000000005,21.457
328.57370000000003,21.893
328.807,22.547
329.0403,23.533
329.27360000000004,23.103
329.50690000000003,21.573
329.7402,22.51
329.9735,22.34
330.20680000000004,22.763
330.44010000000003,23.123
330.6734,22.737
330.9067,23.25
331.14000000000004,23.183
331.37330000000003,22.093
331.6066,22.21
331.83990000000006,21.737
332.07320000000004,22.337
332.3065,23.473
332.5398,23.407
332.77310000000006,22.907
333.00640000000004,22.733
333.2397,22.613
333.473,23.677
333.70630000000006,22.887
333.93960000000004,23.173
334.1729,24.113
334.4062,24.47
334.63950000000006,24.707
334.87280000000004,23.883
335.1061,22.283
335.3394,22.357
335.57270000000005,22.577
335.80600000000004,22.803
336.0393,23.38
336.2726,23.397
336.50590000000005,22.257
336.73920000000004,21.53
336.9725,22.157
337.2058,22.177
337.43910000000005,22.44
337.67240000000004,22.403
337.9057,22.847
338.139,23.063
338.37230000000005,22.987
338.60560000000004,21.837
338.8389,21.05
339.0722,22.52
339.30550000000005,21.997
339.53880000000004,21.26
339.7721,21.747
340.0054,22.36
340.23870000000005,22.017
340.47200000000004,21.107
340.7053,21.027
340.9386,20.843
341.17190000000005,21.17
341.40520000000004,20.747
341.6385,20.25
341.8718,19.977
342.10510000000005,19.77
342.33840000000004,19.91
342.5717,20.587
342.805,22.5
343.03830000000005,22.713
343.27160000000003,21.997
343.5049,21.493
343.7382,22.063
343.97150000000005,22.637
344.20480000000003,22.213
344.4381,21.797
344.6714,22.167
344.90470000000005,20.787
345.13800000000003,21.307
345.3713,22.647
345.6046,23.05
345.83790000000005,23.29
346.07120000000003,23.053
346.3045,21.32
346.5378,21.283
346.77110000000005,21.433
347.00440000000003,22.057
347.2377,21.707
347.471,21.123
347.70430000000005,21.94
347.93760000000003,22.15
348.1709,21.373
348.4042,21.28
348.63750000000005,21.18
348.87080000000003,21.937
349.1041,22.92
349.3374,23.287
349.57070000000004,23.087
349.80400000000003,22.517
350.0373,21.8
350.2706,20.207
350.50390000000004,20.587
350.73720000000003,21.563
350.9705,22.637
351.20380000000006,22.613
351.43710000000004,21.993
351.67040000000003,21.37
351.9037,21.043
352.13700000000006,21.647
352.37030000000004,20.78
352.60360000000003,20.15
352.8369,20.523
353.07020000000006,21.437
353.30350000000004,21.627
353.5368,21.13
353.7701,20.83
354.00340000000006,21.483
354.23670000000004,22.487
354.47,22.833
354.7033,22.18
354.93660000000006,21.537
355.16990000000004,21.123
355.4032,20.747
355.6365,20.51
355.86980000000005,19.87
356.10310000000004,20.193
356.3364,21.01
356.5697,21.29
356.80300000000005,20.533
357.03630000000004,19.303
357.2696,19.03
357.5029,19.68
357.73620000000005,20.21
357.96950000000004,19.977
358.2028,19.377
358.4361,19.357
358.66940000000005,19.377
358.90270000000004,19.067
359.136,19.087
359.3693,19.927
359.60260000000005,21.26
359.83590000000004,20.783
360.0692,19.987
360.3025,19.293
360.53580000000005,18.987
360.76910000000004,19.617
361.0024,20.233
361.2357,20.043
361.46900000000005,19.717
361.70230000000004,19.557
361.9356,20.073
362.1689,20.35
362.40220000000005,19.6
362.63550000000004,19.037
362.8688,19.4
363.1021,19.987
363.33540000000005,20.443
363.56870000000004,20.31
363.802,19.49
364.0353,19.403
364.26860000000005,19.863
364.50190000000003,19.037
364.7352,18.077
364.9685,18.643
365.20180000000005,19.793
365.43510000000003,19.853
365.6684,19.873
365.9017,20.123
366.13500000000005,20.41
366.36830000000003,20.527
366.6016,20.193
366.8349,19.817
367.06820000000005,20.367
367.30150000000003,19.977
367.5348,20.513
367.7681,20.493
368.00140000000005,19.403
368.23470000000003,19.773
368.468,20.273
368.7013,19.347
368.93460000000005,19.337
369.16790000000003,19.577
369.4012,19.487
369.6345,20.12
369.86780000000005,21.057
370.10110000000003,20.89
370.3344,19.757
370.5677,19.507
370.80100000000004,19.093
371.03430000000003,18.633
371.2676,18.227
371.50090000000006,18.657
371.73420000000004,19.553
371.96750000000003,20.337
372.2008,19.91
372.43410000000006,18.77
372.66740000000004,18.873
372.90070000000003,20.13
373.134,20.57
373.36730000000006,19.65
373.60060000000004,18.86
373.8339,20.083
374.0672,20.363
374.30050000000006,19.617
374.53380000000004,19.277
374.7671,18.17
375.0004,17.783
375.23370000000006,18.227
375.46700000000004,19.627
375.7003,21.017
375.9336,20.893
376.16690000000006,19.42
376.40020000000004,19.597
376.6335,19.177
376.8668,19.087
377.10010000000005,19.043
377.33340000000004,18.62
377.5667,18.37
377.8,18.8
378.03330000000005,19.697
378.26660000000004,20.463
378.4999,20.603
378.7332,20.157
378.96650000000005,19.8
379.19980000000004,19.61
379.4331,19.803
379.6664,19.603
379.89970000000005,19.29
380.13300000000004,18.347
380.3663,17.59
380.5996,17.573
380.83290000000005,18.29
381.06620000000004,19.057
381.2995,20.267
381.5328,20.54
381.76610000000005,19.59
381.99940000000004,19.89
382.2327,19.313
382.466,19.257
382.69930000000005,18.55
382.93260000000004,18.307
383.1659,20.067
383.3992,21.13
383.63250000000005,19.957
383.86580000000004,19.28
384.0991,20.06
384.3324,20.72
384.56570000000005,20.333
384.79900000000004,19.053
385.0323,18.327
385.2656,18.3
385.49890000000005,18.983
385.73220000000003,20.2
385.9655,20.27
386.1988,19.713
386.43210000000005,18.853
386.66540000000003,18.747
386.8987,19.35
387.132,19.737
387.36530000000005,19.697
387.59860000000003,19.833
387.8319,19.853
388.0652,20.37
388.29850000000005,20.24
388.53180000000003,19.557
388.7651,19.6
388.9984,19.61
389.23170000000005,19.4
389.46500000000003,20.543
389.6983,20.0
389.9316,19.25
390.16490000000005,18.89
390.39820000000003,19.347
390.6315,20.92
390.86480000000006,21.513
391.09810000000004,20.823
391.33140000000003,19.717
391.5647,19.94
391.79800000000006,19.377
392.03130000000004,18.84
392.26460000000003,19.637
392.4979,21.09
392.73120000000006,20.967
392.96450000000004,19.697
393.19780000000003,20.003
393.4311,20.223
393.66440000000006,20.207
393.89770000000004,19.89
394.13100000000003,20.067
394.3643,20.55
394.59760000000006,21.067
394.83090000000004,21.03
395.0642,20.817
395.2975,20.26
395.53080000000006,20.203
395.76410000000004,20.73
395.9974,20.52
396.2307,19.66
396.46400000000006,19.527
396.69730000000004,20.007
396.9306,22.61
397.1639,21.623
397.39720000000005,20.167
397.63050000000004,19.597
397.8638,19.817
398.0971,20.603
398.33040000000005,21.403
398.56370000000004,21.69
398.797,21.587
399.0303,21.28
399.26360000000005,21.057
399.49690000000004,21.163
399.7302,21.567
399.9635,21.9
400.19680000000005,21.477
400.43010000000004,20.923
400.6634,21.09
400.8967,20.9
401.13000000000005,20.93
401.36330000000004,21.28
401.5966,21.41
401.8299,21.23
402.06320000000005,20.813
402.29650000000004,20.937
402.5298,21.703
402.7631,21.29
402.99640000000005,21.223
403.22970000000004,21.833
403.463,22.547
403.6963,22.643
403.92960000000005,21.627
404.16290000000004,21.307
404.3962,20.957
404.6295,21.273
404.86280000000005,21.69
405.09610000000004,22.023
405.3294,22.137
405.5627,22.087
405.79600000000005,21.76
406.02930000000003,21.75
406.2626,21.847
406.4959,21.803
406.72920000000005,21.483
406.96250000000003,20.847
407.1958,20.283
407.4291,20.64
407.66240000000005,21.57
407.89570000000003,22.167
408.129,22.75
408.3623,24.14
408.59560000000005,24.17
408.82890000000003,22.73
409.0622,22.323
409.2955,23.033
409.52880000000005,22.943
409.76210000000003,22.007
409.9954,22.46
410.2287,21.98
410.46200000000005,22.11
410.69530000000003,22.897
410.9286,23.187
411.16190000000006,23.277
411.39520000000005,22.527
411.62850000000003,21.76
411.8618,21.63
412.09510000000006,21.603
412.32840000000004,21.56
412.56170000000003,22.17
412.795,23.437
413.02830000000006,24.5
413.26160000000004,24.423
413.49490000000003,23.743
413.7282,24.37
413.96150000000006,23.96
414.19480000000004,24.14
414.42810000000003,24.493
414.6614,24.87
414.89470000000006,25.013
415.12800000000004,24.427
415.3613,23.797
415.5946,23.627
415.82790000000006,23.607
416.06120000000004,23.96
416.2945,24.96
416.5278,26.237
416.76110000000006,27.1
416.99440000000004,27.013
417.2277,25.953
417.461,26.643
417.69430000000006,26.827
417.92760000000004,27.187
418.1609,27.707
418.3942,28.413
418.62750000000005,29.503
418.86080000000004,29.663
419.0941,29.16
419.3274,30.603
419.56070000000005,30.833
419.79400000000004,30.327
420.0273,30.287
420.2606,30.96
420.49390000000005,33.187
420.72720000000004,33.567
420.9605,32.8
421.1938,32.173
421.42710000000005,32.82
421.66040000000004,33.97
421.8937,35.407
422.127,35.9
422.36030000000005,35.69
422.59360000000004,35.303
422.8269,36.0
423.0602,36.443
423.29350000000005,36.85
423.52680000000004,37.357
423.7601,37.77
423.9934,38.28
424.22670000000005,39.59
424.46000000000004,40.75
424.6933,41.313
424.9266,40.043
425.15990000000005,41.92
425.39320000000004,43.267
425.6265,44.397
425.8598,44.937
426.09310000000005,45.1
426.32640000000004,45.487
426.5597,46.517
426.793,48.337
427.02630000000005,48.863
427.25960000000003,50.11
427.4929,50.38
427.7262,50.05
427.95950000000005,51.697
428.19280000000003,53.083
428.4261,54.247
428.6594,56.207
428.89270000000005,56.743
429.12600000000003,56.523
429.3593,58.1
429.5926,59.213
429.82590000000005,59.29
430.05920000000003,58.96
430.2925,59.68
430.5258,62.507
430.75910000000005,62.647
430.99240000000003,62.837
431.2257,63.447
431.45900000000006,64.46
431.69230000000005,66.427
431.92560000000003,67.38
432.1589,68.25
432.39220000000006,68.627
432.62550000000005,70.11
432.85880000000003,71.603
433.0921,72.99
433.32540000000006,72.97
433.55870000000004,74.263
433.79200000000003,75.423
434.0253,75.627
434.25860000000006,78.033
434.49190000000004,79.733
434.72520000000003,80.473
434.9585,81.653
435.19180000000006,82.267
435.42510000000004,83.273
435.65840000000003,84.113
435.8917,85.91
436.12500000000006,87.12
436.35830000000004,88.037
436.5916,88.543
436.8249,89.76
437.05820000000006,90.65
437.29150000000004,91.193
437.5248,91.61
437.7581,92.15
437.99140000000006,93.897
438.22470000000004,94.563
438.458,95.143
438.6913,95.207
438.92460000000005,96.21
439.15790000000004,96.713
439.3912,96.56
439.6245,97.273
439.85780000000005,98.14
440.09110000000004,99.433
440.3244,99.477
440.5577,99.98
440.79100000000005,100.433
441.02430000000004,101.223
441.2576,101.787
441.4909,102.183
441.72420000000005,103.14
441.95750000000004,103.67
442.1908,103.743
442.4241,103.683
442.65740000000005,103.843
442.89070000000004,104.017
443.124,104.157
443.3573,104.287
443.59060000000005,104.73
443.82390000000004,104.94
444.0572,105.147
444.2905,105.44
444.52380000000005,105.61
444.75710000000004,105.61
444.9904,105.867
445.2237,106.057
445.45700000000005,106.82
445.69030000000004,106.77
445.9236,106.783
446.1569,106.903
446.39020000000005,107.207
446.62350000000004,107.413
446.8568,107.913
447.0901,108.043
447.32340000000005,108.02
447.55670000000003,107.79
447.79,108.143
448.0233,108.537
448.25660000000005,108.277
448.48990000000003,108.11
448.7232,108.107
448.9565,107.907
449.18980000000005,108.55
449.42310000000003,108.4
449.6564,108.22
449.8897,108.36
450.12300000000005,108.563
450.35630000000003,108.71
450.5896,108.637
450.82290000000006,108.4
451.05620000000005,108.387
451.28950000000003,108.263
451.5228,108.743
451.75610000000006,108.963
451.98940000000005,108.887
452.22270000000003,108.787
452.456,108.773
452.68930000000006,108.573
452.92260000000005,109.013
453.15590000000003,108.783
453.3892,108.833
453.62250000000006,108.773
453.85580000000004,108.607
454.08910000000003,108.873
454.3224,109.193
454.55570000000006,108.84
454.78900000000004,109.25
455.02230000000003,108.493
455.2556,108.02
455.48890000000006,108.613
455.72220000000004,109.247
455.95550000000003,109.157
456.1888,108.453
456.42210000000006,107.967
456.65540000000004,108.413
456.88870000000003,108.72
457.122,108.66
457.35530000000006,108.187
457.58860000000004,108.147
457.8219,108.553
458.0552,108.593
458.28850000000006,108.107
458.52180000000004,108.2
458.7551,107.87
458.9884,107.76
459.22170000000006,108.107
459.45500000000004,108.02
459.6883,107.687
459.9216,107.117
460.15490000000005,106.95
460.38820000000004,107.297
460.6215,106.797
460.8548,106.617
461.08810000000005,106.893
461.32140000000004,107.103
461.5547,106.913
461.788,106.35
462.02130000000005,105.987
462.25460000000004,106.803
462.4879,106.813
462.7212,105.9
462.95450000000005,105.63
463.18780000000004,106.073
463.4211,105.96
463.6544,105.407
463.88770000000005,105.69
464.12100000000004,105.883
464.3543,105.403
464.5876,105.38
464.82090000000005,105.803
465.05420000000004,105.31
465.2875,105.47
465.5208,105.997
465.75410000000005,105.343
465.98740000000004,105.177
466.2207,105.297
466.454,105.417
466.68730000000005,105.257
466.92060000000004,105.12
467.1539,105.54
467.3872,105.51
467.62050000000005,105.033
467.85380000000004,104.983
468.0871,105.263
468.3204,105.51
468.55370000000005,105.063
468.78700000000003,104.583
469.0203,104.75
469.2536,104.857
469.48690000000005,104.377
469.72020000000003,104.067
469.9535,103.893
470.1868,103.787
470.42010000000005,103.767
470.65340000000003,103.12
470.8867,103.727
471.12000000000006,104.557
471.35330000000005,104.487
471.58660000000003,105.053
471.8199,105.82
472.05320000000006,107.37
472.28650000000005,108.317
472.51980000000003,108.357
472.7531,109.927
472.98640000000006,112.157
473.21970000000005,112.84
473.45300000000003,113.983
473.6863,114.297
473.91960000000006,115.797
474.15290000000005,117.823
474.38620000000003,118.173
474.6195,118.327
474.85280000000006,118.537
475.08610000000004,118.9
475.31940000000003,120.887
475.5527,121.343
475.78600000000006,121.79
476.01930000000004,122.28
476.25260000000003,122.993
476.4859,123.557
476.71920000000006,123.503
476.95250000000004,123.803
477.18580000000003,123.753
477.4191,124.5
477.65240000000006,125.073
477.88570000000004,125.327
478.119,124.19
478.3523,125.873
478.58560000000006,126.513
478.81890000000004,125.483
479.0522,125.363
479.2855,126.25
479.51880000000006,127.193
479.75210000000004,127.88
479.9854,127.873
480.2187,128.957
480.45200000000006,128.667
480.68530000000004,128.377
480.9186,128.82
481.1519,130.213
481.38520000000005,130.56
481.61850000000004,131.187
481.8518,130.943
482.0851,131.863
482.31840000000005,132.013
482.55170000000004,132.133
482.785,132.363
483.0183,133.263
483.25160000000005,133.483
483.48490000000004,133.25
483.7182,132.39
483.9515,133.213
484.18480000000005,133.903
484.41810000000004,134.423
484.6514,134.09
484.8847,135.323
485.11800000000005,135.36
485.35130000000004,135.313
485.5846,135.32
485.8179,136.36
486.05120000000005,136.23
486.28450000000004,136.037
486.5178,136.76
486.7511,136.857
486.98440000000005,137.007
487.21770000000004,137.903
487.451,137.97
487.6843,137.983
487.91760000000005,137.99
488.15090000000004,139.627
488.3842,140.343
488.6175,139.103
488.85080000000005,138.25
489.08410000000003,139.613
489.3174,141.08
489.5507,141.967
489.78400000000005,140.653
490.01730000000003,139.247
490.2506,139.327
490.48390000000006,140.28
490.71720000000005,141.137
490.95050000000003,141.467
491.1838,140.743
491.41710000000006,141.563
491.65040000000005,141.863
491.88370000000003,141.437
492.117,141.91
492.35030000000006,142.037
492.58360000000005,141.84
492.81690000000003,142.29
493.0502,142.233
493.28350000000006,142.527
493.51680000000005,142.307
493.75010000000003,142.34
493.9834,142.883
494.21670000000006,143.28
494.45000000000005,143.39
494.68330000000003,143.95
494.9166,143.983
495.14990000000006,144.583
495.38320000000004,143.707
495.61650000000003,142.93
495.8498,144.45
496.08310000000006,144.793
496.31640000000004,144.287
496.54970000000003,144.527
496.783,144.693
497.01630000000006,145.423
497.24960000000004,145.313
497.48290000000003,145.203
497.7162,145.01
497.94950000000006,144.69
498.18280000000004,145.02
498.41610000000003,145.927
498.6494,146.027
498.88270000000006,146.263
499.11600000000004,146.143
499.3493,146.433
499.5826,145.933
499.81590000000006,146.963
500.04920000000004,146.85
500.2825,146.47
500.5158,146.073
500.74910000000006,146.977
500.98240000000004,146.92
501.2157,146.617
501.449,146.87
501.68230000000005,146.977
501.91560000000004,146.65
502.1489,146.907
502.3822,146.743
502.61550000000005,147.213
502.84880000000004,146.603
503.0821,146.067
503.3154,146.583
503.54870000000005,146.12
503.78200000000004,145.233
504.0153,145.56
504.2486,145.233
504.48190000000005,145.403
504.71520000000004,145.127
504.9485,145.123
505.1818,144.813
505.41510000000005,144.41
505.64840000000004,144.197
505.8817,144.45
506.115,144.273
506.34830000000005,144.09
506.58160000000004,143.29
506.8149,142.863
507.0482,143.173
507.28150000000005,143.16
507.51480000000004,142.247
507.7481,142.223
507.9814,141.717
508.21470000000005,141.077
508.44800000000004,140.607
508.6813,141.197
508.9146,141.06
509.14790000000005,141.037
509.38120000000004,140.103
509.6145,139.487
509.8478,139.143
510.08110000000005,139.657
510.31440000000003,139.37
510.5477,139.06
510.78100000000006,138.32
511.01430000000005,138.54
511.24760000000003,138.29
511.4809,137.91
511.71420000000006,136.68
511.94750000000005,136.963
512.1808,137.127
512.4141,137.043
512.6474000000001,135.943
512.8807,136.217
513.114,135.88
513.3473,135.637
513.5806,134.997
513.8139,135.063
514.0472,134.383
514.2805,133.873
514.5138000000001,134.41
514.7471,133.62
514.9804,132.637
515.2137,133.04
515.447,133.163
515.6803,133.063
515.9136,132.877
516.1469,132.95
516.3802000000001,132.97
516.6135,132.36
516.8468,131.967
517.0801,131.803
517.3134,131.413
517.5467,131.317
517.78,130.697
518.0133,130.12
518.2466000000001,129.557
518.4799,129.7
518.7132,129.667
518.9465,129.97
519.1798,129.817
519.4131,129.557
519.6464,128.977
519.8797,128.677
520.113,128.623
520.3463,127.893
520.5796,127.257
520.8129,127.547
521.0462,127.817
521.2795,127.753
521.5128,127.15
521.7461,126.517
521.9794,127.487
522.2127,127.4
522.446,126.813
522.6793,126.5
522.9126,126.277
523.1459,126.61
523.3792,126.163
523.6125,125.66
523.8458,125.453
524.0791,125.38
524.3124,125.36
524.5457,125.43
524.779,124.713
525.0123,124.817
525.2456,124.353
525.4789,123.687
525.7122,122.353
525.9455,123.013
526.1788,123.083
526.4121,122.613
526.6454,121.677
526.8787,121.767
527.112,121.417
527.3453,121.103
527.5786,120.263
527.8119,120.177
528.0452,120.247
528.2785,120.013
528.5118,119.66
528.7451,119.817
528.9784,119.45
529.2117,118.527
529.445,118.633
529.6783,118.82
529.9116,118.81
530.1449,118.673
530.3782,118.253
530.6115,117.987
530.8448,117.517
531.0781000000001,117.173
531.3114,117.207
531.5447,117.437
531.778,117.713
532.0113,116.933
532.2446,115.957
532.4779,116.627
532.7112,117.163
532.9445000000001,116.423
533.1778,116.603
533.4111,115.473
533.6444,115.153
533.8777,115.723
534.111,115.557
534.3443,115.437
534.5776,115.057
534.8109000000001,114.343
535.0442,114.767
535.2775,114.35
535.5108,114.07
535.7441,113.997
535.9774,113.5
536.2107,113.24
536.444,112.613
536.6773000000001,112.017
536.9106,111.707
537.1439,111.783
537.3772,111.923
537.6105,111.793
537.8438,110.997
538.0771,110.26
538.3104,109.823
538.5437000000001,110.09
538.777,110.397
539.0103,109.367
539.2436,108.59
539.4769,108.547
539.7102,108.58
539.9435,108.517
540.1768,108.307
540.4101,108.193
540.6434,107.863
540.8767,106.653
541.11,106.87
541.3433,107.56
541.5766,106.433
541.8099,105.353
542.0432,105.637
542.2765,105.803
542.5098,106.24
542.7431,105.653
542.9764,105.353
543.2097,104.873
543.443,103.99
543.6763,104.44
543.9096,104.437
544.1429,103.517
544.3762,102.54
544.6095,103.48
544.8428,103.213
545.0761,102.573
545.3094,101.797
545.5427,101.067
545.776,100.777
546.0093,101.07
546.2426,102.33
546.4759,101.543
546.7092,100.343
546.9425,100.22
547.1758,100.97
547.4091,100.787
547.6424,99.613
547.8757,98.673
548.109,100.42
548.3423,99.877
548.5756,99.42
548.8089,99.007
549.0422,98.48
549.2755,98.843
549.5088,98.94
549.7421,98.41
549.9754,97.767
550.2087,97.497
550.442,97.743
550.6753,97.553
550.9086,96.337
551.1419,96.403
551.3752000000001,96.673
551.6085,96.373
551.8418,95.237
552.0751,94.773
552.3084,94.99
552.5417,95.053
552.775,93.91
553.0083,94.28
553.2416000000001,94.72
553.4749,94.197
553.7082,93.517
553.9415,92.33
554.1748,92.56
554.4081,93.273
554.6414,92.69
554.8747,92.563
555.1080000000001,92.883
555.3413,92.5
555.5746,92.437
555.8079,92.603
556.0412,92.437
556.2745,91.693
556.5078,91.193
556.7411,92.053
556.9744000000001,92.18
557.2077,91.387
557.441,91.403
557.6743,91.64
557.9076,92.053
558.1409,91.833
558.3742,91.237
558.6075,91.25
558.8408000000001,91.567
559.0741,91.933
559.3074,91.347
559.5407,91.223
559.774,90.97
560.0073,91.167
560.2406,91.403
560.4739,91.63
560.7072000000001,91.237
560.9405,91.0
561.1738,90.697
561.4071,90.557
561.6404,90.99
561.8737,90.957
562.107,90.64
562.3403,90.72
562.5736,91.477
562.8069,92.073
563.0402,91.753
563.2735,90.883
563.5068,91.03
563.7401,92.31
563.9734,92.523
564.2067,91.543
564.44,90.65
564.6733,90.627
564.9066,92.407
565.1399,91.437
565.3732,91.36
565.6065,91.59
565.8398,91.573
566.0731,92.04
566.3064,92.19
566.5397,91.28
566.773,91.883
567.0063,92.173
567.2396,92.707
567.4729,92.35
567.7062,91.68
567.9395,91.923
568.1728,92.48
568.4061,92.65
568.6394,93.227
568.8727,93.617
569.106,94.793
569.3393,94.633
569.5726,93.767
569.8059,94.747
570.0392,95.97
570.2725,95.15
570.5058,95.617
570.7391,96.477
570.9724,97.187
571.2057,97.573
571.439,97.78
571.6723000000001,98.17
571.9056,98.7
572.1389,98.997
572.3722,100.67
572.6055,100.587
572.8388,101.027
573.0721,102.403
573.3054,103.507
573.5387000000001,104.363
573.772,104.967
574.0053,105.743
574.2386,107.263
574.4719,108.027
574.7052,107.25
574.9385,107.9
575.1718,110.243
575.4051000000001,111.48
575.6384,110.897
575.8717,111.417
576.105,113.947
576.3383,114.513
576.5716,115.457
576.8049,117.863
577.0382,119.647
577.2715000000001,120.923
577.5048,122.547
577.7381,124.78
577.9714,125.54
578.2047,126.937
578.438,128.863
578.6713,130.76
578.9046,131.977
579.1379000000001,133.03
579.3712,133.22
579.6045,132.96
579.8378,131.813
580.0711,133.373
580.3044,135.08
580.5377,135.193
580.771,134.517
581.0043000000001,135.343
581.2376,136.037
581.4709,135.547
581.7042,135.907
581.9375,136.463
582.1708,137.073
582.4041,136.817
582.6374,136.637
582.8707,138.19
583.104,138.687
583.3373,138.06
583.5706,137.883
583.8039,138.833
584.0372,138.977
584.2705000000001,138.783
584.5038000000001,139.19
584.7371,139.853
584.9704,139.347
585.2037,139.093
585.437,139.387
585.6703,139.05
585.9036,139.31
586.1369000000001,139.463
586.3702000000001,138.157
586.6035,138.777
586.8368,140.23
587.0701,139.383
587.3034,139.127
587.5367,139.07
587.77,139.157
588.0033000000001,139.067
588.2366000000001,138.617
588.4699,137.9
588.7032,138.32
588.9365,138.32
589.1698,138.713
589.4031,138.123
589.6364,138.657
589.8697000000001,138.207
590.1030000000001,137.5
590.3363,137.263
590.5696,137.37
590.8029,136.77
591.0362,137.387
591.2695,137.09
591.5028000000001,136.19
591.7361000000001,135.75
591.9694000000001,135.683
592.2027,134.927
592.436,134.82
592.6693,135.127
592.9026,136.74
593.1359,135.51
593.3692000000001,134.757
593.6025000000001,134.097
593.8358000000001,134.187
594.0691,134.067
594.3024,133.563
594.5357,133.557
594.769,133.793
595.0023,133.607
595.2356000000001,132.907
595.4689000000001,132.153
595.7022000000001,132.077
595.9355,132.047
596.1688,132.227
596.4021,131.44
596.6354,132.147
596.8687,130.76
597.1020000000001,130.35
597.3353000000001,130.86
597.5686000000001,131.507
597.8019,130.697
598.0352,129.513
598.2685,128.863
598.5018,130.84
598.7351,130.107
598.9684000000001,129.08
599.2017000000001,128.593
599.4350000000001,128.823
599.6683,129.043
599.9016,128.647
600.1349,127.533
600.3682,128.08
600.6015,127.777
600.8348000000001,127.603
601.0681000000001,127.237
601.3014000000001,127.577
601.5347,127.343
601.768,126.79
602.0013,126.403
602.2346,126.71
602.4679,126.18
602.7012000000001,126.35
602.9345000000001,126.333
603.1678,126.16
603.4011,125.39
603.6344,125.103
603.8677,124.727
604.101,125.237
604.3343,124.017
604.5676000000001,124.167
604.8009000000001,123.897
605.0342,122.623
605.2675,121.723
605.5008,122.3
605.7341,122.573
605.9674,122.087
606.2007,121.903
606.4340000000001,121.74
606.6673000000001,120.84
606.9006,120.543
607.1339,121.13
607.3672,121.453
607.6005,120.577
607.8338,120.88
608.0671,120.487
608.3004000000001,120.61
608.5337000000001,120.753
608.767,120.853
609.0003,120.19
609.2336,119.76
609.4669,119.787
609.7002,120.407
609.9335000000001,120.57
610.1668000000001,120.047
610.4001000000001,119.157
610.6334,119.383
610.8667,119.883
611.1,120.037
611.3333,119.063
611.5666,119.58
611.7999000000001,119.773
612.0332000000001,119.963
612.2665000000001,119.323
612.4998,118.963
612.7331,119.487
612.9664,119.343
613.1997,118.42
613.433,118.897
613.6663000000001,118.663
613.8996000000001,118.61
614.1329000000001,118.987
614.3662,119.263
614.5995,118.623
614.8328,118.163
615.0661,118.303
615.2994,118.4
615.5327000000001,117.72
615.7660000000001,117.173
615.9993000000001,117.423
616.2326,117.933
616.4659,117.67
616.6992,117.05
616.9325,116.717
617.1658,117.61
617.3991000000001,117.443
617.6324000000001,117.367
617.8657000000001,116.95
618.099,117.03
618.3323,117.36
618.5656,117.493
618.7989,116.96
619.0322,116.67
619.2655000000001,118.19
619.4988000000001,118.54
619.7321000000001,117.23
619.9654,116.86
620.1987,117.693
620.432,118.16
620.6653,117.7
620.8986,117.163
621.1319000000001,117.57
621.3652000000001,117.573
621.5985000000001,116.913
621.8318,116.933
622.0651,117.487
622.2984,117.723
622.5317,117.17
622.765,117.037
622.9983000000001,117.197
623.2316000000001,117.267
623.4649000000001,116.627
623.6982,116.4
623.9315,116.84
624.1648,116.73
624.3981,115.573
624.6314,116.42
624.8647000000001,117.343
625.0980000000001,117.107
625.3313,116.273
625.5646,116.5
625.7979,116.557
626.0312,116.11
626.2645,115.53
626.4978,115.867
626.7311000000001,116.877
626.9644000000001,117.33
627.1977,116.01
627.431,115.223
627.6643,115.597
627.8976,116.03
628.1309,116.083
628.3642,115.983
628.5975000000001,115.417
628.8308000000001,115.443
629.0641,115.49
629.2974,115.577
629.5307,116.27
629.764,116.24
629.9973,115.12
630.2306000000001,114.697
630.4639000000001,115.09
630.6972000000001,116.073
630.9305,115.663
631.1638,114.36
631.3971,114.863
631.6304,115.707
631.8637,114.477
632.0970000000001,114.587
632.3303000000001,114.607
632.5636000000001,114.78
632.7969,114.25
633.0302,113.637
633.2635,114.277
633.4968,114.647
633.7301,113.447
633.9634000000001,112.637
634.1967000000001,112.677
634.4300000000001,113.507
634.6633,113.267
634.8966,112.953
635.1299,113.563
635.3632,113.46
635.5965,111.697
635.8298000000001,111.627
636.0631000000001,112.177
636.2964000000001,112.767
636.5297,112.037
636.763,111.34
636.9963,111.55
637.2296,111.803
637.4629,111.087
637.6962000000001,111.517
637.9295000000001,110.733
638.1628000000001,109.97
638.3961,109.78
638.6294,109.89
638.8627,110.53
639.096,110.437
639.3293,109.73
639.5626000000001,109.353
639.7959000000001,109.097
640.0292000000001,108.873
640.2625,108.713
640.4958,108.963
640.7291,108.753
640.9624,107.993
641.1957,107.153
641.4290000000001,109.167
641.6623000000001,108.727
641.8956000000001,107.75
642.1289,107.213
642.3622,107.35
642.5955,106.573
642.8288,106.04
643.0621,106.717
643.2954000000001,106.687
643.5287000000001,106.47
643.7620000000001,105.813
643.9953,105.13
644.2286,104.68
644.4619,104.477
644.6952,104.66
644.9285,104.94
645.1618000000001,104.163
645.3951000000001,104.06
645.6284,103.74
645.8617,103.703
646.095,103.043
646.3283,102.413
646.5616,102.877
646.7949,102.61
647.0282000000001,101.497
647.2615000000001,101.517
647.4948,101.53
647.7281,100.563
647.9614,99.913
648.1947,101.59
648.428,101.933
648.6613,99.673
648.8946000000001,98.473
649.1279000000001,99.253
649.3612,98.27
649.5945,95.907
649.8278,94.27
650.0611,93.59
650.2944,92.57
650.5277000000001,91.56
650.7610000000001,92.13
650.9943000000001,91.773
651.2276,91.037
651.4609,91.03
651.6942,90.997
651.9275,90.38
652.1608,89.19
652.3941000000001,88.743
652.6274000000001,87.96
652.8607000000001,87.533
653.094,87.22
653.3273,86.803
653.5606,85.12
653.7939,84.087
654.0272,83.7
654.2605000000001,83.867
654.4938000000001,82.71
654.7271000000001,81.73
654.9604,81.107
655.1937,80.097
655.427,78.563
655.6603,78.693
655.8936,79.013
656.1269000000001,78.377
656.3602000000001,77.497
656.5935000000001,77.9
656.8268,77.42
657.0601,76.27
657.2934,75.14
657.5267,74.45
657.76,73.65
657.9933000000001,73.253
658.2266000000001,71.62
658.4599000000001,71.043
658.6932,70.61
658.9265,70.127
659.1598,69.29
659.3931,68.593
659.6264,67.963
659.8597000000001,67.573
660.0930000000001,69.597
660.3263000000001,68.803
660.5596,66.823
660.7929,65.207
661.0262,64.447
661.2595,64.44
661.4928,63.887
661.7261000000001,63.527
661.9594000000001,63.467
662.1927000000001,62.393
662.426,61.603
662.6593,61.413
662.8926,60.593
663.1259,60.217
663.3592,59.977
663.5925000000001,59.9
663.8258000000001,61.117
664.0591000000001,60.777
664.2924,59.567
664.5257,58.963
664.759,58.157
664.9923,56.77
665.2256,55.56
665.4589000000001,55.523
665.6922000000001,54.143
665.9255,52.863
666.1588,52.49
666.3921,52.46
666.6254,50.51
666.8587,48.673
667.092,47.43
667.3253000000001,46.7
667.5586000000001,47.237
667.7919,45.443
668.0252,44.197
668.2585,45.143
668.4918,45.437
668.7251,44.307
668.9584,43.05
669.1917000000001,42.8
669.4250000000001,44.377
669.6583,43.793
669.8916,42.093
670.1249,41.553
670.3582,41.027
670.5915,40.703
670.8248000000001,41.357
671.0581000000001,41.97
671.2914000000001,42.103
671.5247,39.663
671.758,37.523
671.9913,36.697
672.2246,36.627
672.4579,38.13
672.6912000000001,38.393
672.9245000000001,36.453
673.1578000000001,35.927
673.3911,37.04
673.6244,37.543
673.8577,37.023
674.091,36.01
674.3243,35.693
674.5576000000001,35.27
674.7909000000001,34.54
675.0242000000001,35.55
675.2575,34.293
675.4908,33.573
675.7241,33.283
675.9574,32.88
676.1907,33.62
676.4240000000001,33.427
676.6573000000001,31.93
676.8906000000001,31.303
677.1239,31.03
677.3572,30.473
677.5905,29.997
677.8238,29.643
678.0571,30.15
678.2904000000001,30.077
678.5237000000001,29.49
678.7570000000001,28.41
678.9903,28.177
679.2236,27.817
679.4569,27.34
679.6902,27.13
679.9235,27.583
680.1568000000001,27.263
680.3901000000001,26.33
680.6234000000001,26.41
680.8567,27.447
681.09,28.1
681.3233,27.193
681.5566,26.207
681.7899,26.277
682.0232000000001,26.877
682.2565000000001,26.96
682.4898000000001,26.73
682.7231,27.933
682.9564,28.243
683.1897,26.793
683.423,25.873
683.6563,26.707
683.8896000000001,27.497
684.1229000000001,27.66
684.3562000000001,27.68
684.5895,27.013
684.8228,26.377
685.0561,26.467
685.2894,26.77
685.5227,27.0
685.7560000000001,27.34
685.9893000000001,27.823
686.2226,27.62
686.4559,27.143
686.6892,26.78
686.9225,26.45
687.1558,25.873
687.3891,26.41
687.6224000000001,27.117
687.8557000000001,27.597
688.089,29.053
688.3223,28.443
688.5556,28.12
688.7889,28.05
689.0222,27.983
689.2555,28.523
689.4888000000001,29.257
689.7221000000001,29.377
689.9554,30.923
690.1887,32.533
690.422,33.393
690.6553,33.66
690.8886,34.807
691.1219000000001,36.387
691.3552000000001,37.693
691.5885000000001,38.803
691.8218,42.927
692.0551,45.117
692.2884,47.443
692.5217,49.81
692.755,49.887
692.9883000000001,49.933
693.2216000000001,53.143
693.4549000000001,56.85
693.6882,60.287
693.9215,63.393
694.1548,65.67
694.3881,66.36
694.6214,67.03
694.8547000000001,69.743
695.0880000000001,72.927
695.3213000000001,74.993
695.5546,76.783
695.7879,79.5
696.0212,81.4
696.2545,82.623
696.4878,83.883
696.7211000000001,84.533
696.9544000000001,85.09
697.1877000000001,86.51
697.421,87.303
697.6543,88.387
697.8876,87.9
698.1209,87.803
698.3542,88.607
698.5875000000001,89.617
698.8208000000001,90.047
699.0541000000001,89.143
699.2874,92.25
699.5207,92.15
699.754,92.297
699.9873,93.907
700.2206,94.943
700.4539000000001,95.353
700.6872000000001,96.843
700.9205000000001,97.303
701.1538,97.92
701.3871,99.31
701.6204,101.463
701.8537,102.143
702.087,101.597
702.3203000000001,102.457
702.5536000000001,103.537
702.7869000000001,103.427
703.0202,104.357
703.2535,105.457
703.4868,105.887
703.7201,104.997
703.9534,104.513
704.1867000000001,105.693
704.4200000000001,106.623
704.6533000000001,106.273
704.8866,108.007
705.1199,109.117
705.3532,109.3
705.5865,110.24
705.8198,111.777
706.0531000000001,112.057
706.2864000000001,111.403
706.5197000000001,111.67
706.753,114.943
706.9863,113.76
707.2196,112.843
707.4529,114.213
707.6862,116.773
707.9195000000001,117.133
708.1528000000001,115.76
708.3861,115.03
708.6194,116.057
708.8527,116.897
709.086,117.73
709.3193,117.58
709.5526000000001,117.623
709.7859000000001,118.143
710.0192000000001,118.507
710.2525,118.177
710.4858,118.5
710.7191,119.223
710.9524,119.11
711.1857,118.78
711.4190000000001,119.393
711.6523000000001,120.193
711.8856000000001,120.37
712.1189,120.17
712.3522,120.537
712.5855,119.377
712.8188,120.16
713.0521,121.71
713.2854000000001,121.88
713.5187000000001,121.42
713.7520000000001,121.287
713.9853,120.907
714.2186,121.343
714.4519,121.413
714.6852,121.513
714.9185,121.563
715.1518000000001,121.683
715.3851000000001,122.033
715.6184000000001,122.013
715.8517,121.433
716.085,122.213
716.3183,121.983
716.5516,121.887
716.7849,121.997
717.0182000000001,122.41
717.2515000000001,122.16
717.4848000000001,121.533
717.7181,121.773
717.9514,122.5
718.1847,122.43
718.418,122.783
718.6513,122.503
718.8846000000001,121.443
719.1179000000001,121.893
719.3512000000001,122.443
719.5845,121.953
719.8178,122.12
720.0511,123.17
720.2844,123.233
720.5177,122.693
720.7510000000001,122.587
720.9843000000001,122.677
721.2176000000001,122.037
721.4509,121.327
721.6842,123.19
721.9175,122.337
722.1508,121.75
722.3841,122.15
722.6174000000001,122.947
722.8507000000001,123.307
723.0840000000001,123.1
723.3173,122.68
723.5506,122.547
723.7839,122.197
724.0172,122.157
724.2505,122.317
724.4838000000001,122.427
724.7171000000001,122.693
724.9504000000001,122.537
725.1837,121.987
725.417,121.737
725.6503,122.467
725.8836,123.13
726.1169,122.383
726.3502000000001,121.67
726.5835000000001,122.827
726.8168000000001,123.277
727.0501,121.957
727.2834,122.517
727.5167,122.787
727.75,122.273
727.9833,122.103
728.2166000000001,122.44
728.4499000000001,122.077
728.6832,121.877
728.9165,122.48
729.1498,122.71
729.3831,122.35
729.6164,122.25
729.8497000000001,122.49
730.0830000000001,122.28
730.3163000000001,121.67
730.5496,121.873
730.7829,122.393
731.0162,122.753
731.2495,121.523
731.4828,120.63
731.7161000000001,121.05
731.9494000000001,122.063
732.1827000000001,122.23
732.416,121.797
732.6493,121.623
732.8826,121.69
733.1159,121.35
733.3492,121.38
733.5825000000001,121.31
733.8158000000001,121.4
734.0491000000001,121.58
734.2824,121.41
734.5157,120.83
734.749,120.613
734.9823,121.593
735.2156,121.513
735.4489000000001,120.553
735.6822000000001,120.593
735.9155000000001,120.753
736.1488,120.373
736.3821,120.033
736.6154,120.417
736.8487,120.507
737.082,119.717
737.3153000000001,119.697
737.5486000000001,120.517
737.7819000000001,120.017
738.0152,118.897
738.2485,118.847
738.4818,120.1
738.7151,119.69
738.9484,119.35
739.1817000000001,118.88
739.4150000000001,118.28
739.6483000000001,118.54
739.8816,119.05
740.1149,118.92
740.3482,119.46
740.5815,118.39
740.8148,117.323
741.0481000000001,117.853
741.2814000000001,119.213
741.5147000000001,118.923
741.748,117.56
741.9813,116.87
742.2146,118.7
742.4479,117.9
742.6812,117.39
742.9145000000001,117.16
743.1478000000001,117.16
743.3811000000001,117.69
743.6144,117.62
743.8477,116.69
744.081,116.767
744.3143,116.817
744.5476,116.517
744.7809000000001,116.237
745.0142000000001,116.337
745.2475000000001,116.427
745.4808,116.407
745.7141,116.557
745.9474,116.26
746.1807,114.99
746.414,113.993
746.6473000000001,115.463
746.8806000000001,116.917
747.1139000000001,115.497
747.3472,113.82
747.5805,114.47
747.8138,115.763
748.0471,114.123
748.2804,113.89
748.5137000000001,114.21
748.7470000000001,114.007
748.9803,113.537
749.2136,113.843
749.4469,114.123
749.6802,113.61
749.9135,113.06
750.1468000000001,112.323
750.3801000000001,112.213
750.6134000000001,112.833
750.8467,112.993
751.08,112.267
751.3133,111.347
751.5466,111.307
751.7799,111.81
752.0132000000001,112.44
752.2465000000001,111.86
752.4798000000001,111.177
752.7131,111.777
752.9464,112.237
753.1797,111.167
753.413,110.857
753.6463,111.137
753.8796000000001,110.857
754.1129000000001,110.087
754.3462000000001,109.69
754.5795,110.0
754.8128,109.75
755.0461,108.91
755.2794,111.56
755.5127,109.43
755.7460000000001,107.72
755.9793000000001,108.01
756.2126000000001,109.27
756.4459,109.48
756.6792,108.413
756.9125,107.773
757.1458,107.843
757.3791,107.873
757.6124000000001,108.41
757.8457000000001,107.42
758.0790000000001,105.777
758.3123,106.047
758.5456,106.973
758.7789,106.567
759.0122,106.237
759.2455,106.523
759.4788000000001,105.8
759.7121000000001,105.16
759.9454000000001,105.663
760.1787,105.933
760.412,104.877
760.6453,103.77
760.8786,104.237
761.1119,104.537
761.3452000000001,104.097
761.5785000000001,103.827
761.8118000000001,104.31
762.0451,104.16
762.2784,103.243
762.5117,102.053
762.745,102.96
762.9783,103.423
763.2116000000001,102.647
763.4449000000001,101.857
763.6782000000001,102.057
763.9115,101.667
764.1448,101.683
764.3781,102.873
764.6114,102.403
764.8447,100.513
765.0780000000001,99.91
765.3113000000001,101.31
765.5446000000001,100.923
765.7779,100.423
766.0112,100.697
766.2445,99.467
766.4778,99.493
766.7111,99.08
766.9444000000001,99.13
767.1777000000001,99.26
767.4110000000001,99.45
767.6443,99.52
767.8776,98.603
768.1109,97.183
768.3442,98.117
768.5775,98.277
768.8108000000001,98.717
769.0441000000001,98.117
769.2774000000001,97.117
769.5107,97.367
769.744,97.737
769.9773,97.187
770.2106,95.63
770.4439000000001,95.43
770.6772000000001,95.77
770.9105000000001,95.41
771.1438,94.643
771.3771,95.433
771.6104,96.183
771.8437,95.163
772.077,94.057
772.3103000000001,93.627
772.5436000000001,93.873
772.7769000000001,93.703
773.0102,92.337
773.2435,91.627
773.4768,91.753
773.7101,91.8
773.9434,92.987
774.1767000000001,91.277
774.4100000000001,91.107
774.6433000000001,91.657
774.8766,91.06
775.1099,90.55
775.3432,90.3
775.5765,89.81
775.8098,90.27
776.0431000000001,88.66
776.2764000000001,88.483
776.5097000000001,89.003
776.743,88.677
776.9763,88.827
777.2096,88.933
777.4429,87.833
777.6762,86.51
777.9095000000001,87.14
778.1428000000001,86.957
778.3761000000001,86.737
778.6094,86.85
778.8427,86.1
779.076,84.753
779.3093,84.68
779.5426,85.913
779.7759000000001,85.673
780.0092000000001,84.297
780.2425000000001,83.477
780.4758,84.127
780.7091,83.473
780.9424,82.417
781.1757,82.437
781.409,82.797
781.6423000000001,81.723
781.8756000000001,80.04
782.1089000000001,78.95
782.3422,78.367
782.5755,78.317
782.8088,77.897
783.0421,77.297
783.2754,77.48
783.5087000000001,76.66
783.7420000000001,76.54
783.9753000000001,76.027
784.2086,74.93
784.4419,75.097
784.6752,75.25
784.9085,74.593
785.1418,74.32
785.3751000000001,75.177
785.6084000000001,74.987
785.8417000000001,74.07
786.075,73.937
786.3083,74.28
786.5416,73.94
786.7749,73.19
787.0082,72.913
787.2415000000001,71.813
787.4748000000001,71.17
787.7081000000001,72.77
787.9414,73.767
788.1747,72.337
788.408,70.603
788.6413,70.57
788.8746,72.867
789.1079000000001,72.653
789.3412000000001,71.407
789.5745000000001,70.73
789.8078,70.813
790.0411,70.49
790.2744,70.24
790.5077,70.93
790.7410000000001,70.7
790.9743000000001,68.907
791.2076000000001,68.103
791.4409,68.39
791.6742,67.557
791.9075,65.833
792.1408,64.043
792.3741,62.693
792.6074000000001,63.34
792.8407000000001,61.737
793.0740000000001,60.267
793.3073,59.173
793.5406,58.51
793.7739,57.7
794.0072,55.68
794.2405,53.173
794.4738000000001,51.303
794.7071000000001,49.277
794.9404000000001,47.637
795.1737,46.67
795.407,45.137
795.6403,43.69
795.8736,42.403
796.1069,41.55
796.3402000000001,40.187
796.5735000000001,39.14
796.8068000000001,39.013
797.0401,39.03
797.2734,38.993
797.5067,39.363
797.74,39.0
797.9733,37.64
798.2066000000001,37.133
798.4399000000001,37.99
798.6732000000001,38.463
798.9065,37.447
799.1398,36.173
799.3731,36.74
799.6064,36.563
799.8397,35.153
800.0730000000001,33.947
800.3063000000001,34.717
800.5396000000001,34.923
800.7729,35.243
801.0062,35.653
801.2395,36.117
801.4728,35.777
801.7061,33.72
801.9394000000001,33.15
802.1727000000001,33.477
802.4060000000001,34.403
802.6393,34.483
802.8726,33.36
803.1059,33.44
803.3392,33.753
803.5725,33.343
803.8058000000001,32.597
804.0391000000001,33.007
804.2724000000001,32.597
804.5057,32.317
804.739,32.193
804.9723,30.763
805.2056,29.713
805.4389,30.023
805.6722000000001,30.243
805.9055000000001,30.717
806.1388000000001,30.76
806.3721,29.49
806.6054,28.403
806.8387,28.883
807.072,28.957
807.3053,27.76
807.5386000000001,28.74
807.7719000000001,28.507
808.0052000000001,27.47
808.2385,26.26
808.4718,25.24
808.7051,25.537
808.9384,26.263
809.1717000000001,26.347
809.4050000000001,25.08
809.6383000000001,24.927
809.8716000000001,24.26
810.1049,23.427
810.3382,22.657
810.5715,22.66
810.8048,22.923
811.0381000000001,23.27
811.2714000000001,24.197
811.5047000000001,23.073
811.738,22.283
811.9713,21.997
812.2046,21.51
812.4379,21.757
812.6712,21.813
812.9045000000001,21.39
813.1378000000001,21.42
813.3711000000001,22.377
813.6044,23.577
813.8377,22.753
814.071,20.963
814.3043,21.657
814.5376,22.167
814.7709000000001,20.847
815.0042000000001,21.497
815.2375000000001,21.657
815.4708,22.267
815.7041,22.683
815.9374,21.773
816.1707,21.017
816.404,20.513
816.6373000000001,19.873
816.8706000000001,20.29
817.1039000000001,20.993
817.3372,21.077
817.5705,20.563
817.8038,20.407
818.0371,20.893
818.2704,21.087
818.5037000000001,21.07
818.7370000000001,19.76
818.9703000000001,18.687
819.2036,18.15
819.4369,18.557
819.6702,19.043
819.9035,19.157
820.1368,18.97
820.3701000000001,18.69
820.6034000000001,19.9
820.8367000000001,20.63
821.07,20.433
821.3033,19.273
821.5366,18.937
821.7699,19.937
822.0032,20.49
822.2365000000001,20.097
822.4698000000001,18.65
822.7031000000001,19.003
822.9364,19.5
823.1697,18.557
823.403,17.64
823.6363,18.46
823.8696,19.137
824.1029000000001,18.117
824.3362000000001,18.917
824.5695000000001,19.513
824.8028,20.063
825.0361,20.103
825.2694,19.567
825.5027,19.233
825.736,18.507
825.9693000000001,18.027
826.2026000000001,19.36
826.4359000000001,18.13
826.6692,17.67
826.9025,17.88
827.1358,18.627
827.3691,19.783
827.6024,20.04
827.8357000000001,19.01
828.0690000000001,17.683
828.3023000000001,18.863
828.5356,19.39
828.7689,19.0
829.0022,18.503
829.2355,18.62
829.4688000000001,18.22
829.7021000000001,17.817
829.9354000000001,18.15
830.1687000000001,19.04
830.402,19.59
830.6353,19.287
830.8686,18.373
831.1019,18.643
831.3352000000001,18.753
831.5685000000001,18.1
831.8018000000001,18.187
832.0351,18.587
832.2684,18.557
832.5017,17.977
832.735,17.863
832.9683,18.287
833.2016000000001,17.923
833.4349000000001,17.49
833.6682000000001,17.037
833.9015,17.687
834.1348,17.683
834.3681,16.983
834.6014,16.91
834.8347,17.08
835.0680000000001,16.45
835.3013000000001,15.98
835.5346000000001,15.113
835.7679,15.053
836.0012,15.133
836.2345,15.103
836.4678,15.15
836.7011,15.453
836.9344000000001,14.947
837.1677000000001,13.637
837.4010000000001,14.46
837.6343,14.42
837.8676,14.56
838.1009,14.653
838.3342,14.647
838.5675,14.463
838.8008000000001,14.307
839.0341000000001,14.22
839.2674000000001,14.577
839.5007,14.823
839.734,15.27
839.9673,14.95
840.2006,13.943
840.4339,13.363
840.6672000000001,12.797
840.9005000000001,12.127
841.1338000000001,11.037
841.3671,10.18
841.6004,9.82
841.8337,10.66
842.067,11.83
842.3003,12.397
842.5336000000001,12.003
842.7669000000001,11.533
843.0002000000001,12.077
843.2335,12.703
843.4668,12.76
843.7001,12.05
843.9334,11.483
844.1667,11.43
844.4000000000001,11.307
844.6333000000001,11.167
844.8666000000001,11.847
845.0999,12.24
845.3332,12.517
845.5665,11.75
845.7998,11.287
846.0331,12.39
846.2664000000001,12.433
846.4997000000001,10.643
846.7330000000001,9.867
846.9663,9.567
847.1996,10.563
847.4329,11.287
847.6662,11.013
847.8995,12.067
848.1328000000001,12.667
848.3661000000001,11.35
848.5994000000001,9.103
848.8327,9.623
849.066,10.467
849.2993,11.12
849.5326,11.593
849.7659000000001,11.6
849.9992000000001,11.047
850.2325000000001,10.607
850.4658000000001,10.47
850.6991,10.647
850.9324,10.687
851.1657,10.367
851.399,10.603
851.6323000000001,11.407
851.8656000000001,11.427
852.0989000000001,10.557
852.3322000000001,9.717
852.5655,9.22
852.7988,9.66
853.0321,10.69
853.2654,11.363
853.4987000000001,11.4
853.7320000000001,11.02
853.9653000000001,10.223
854.1986,10.83
854.4319,11.23
854.6652,11.607
854.8985,11.773
855.1318,11.38
855.3651000000001,10.72
855.5984000000001,10.59
855.8317000000001,11.233
856.065,12.267
856.2983,12.593
856.5316,12.673
856.7649,11.777
856.9982,10.527
857.2315000000001,9.91
857.4648000000001,10.32
857.6981000000001,11.123
857.9314,12.55
858.1647,12.41
858.398,12.023
858.6313,11.99
858.8646,12.17
859.0979000000001,12.263
859.3312000000001,11.597
859.5645000000001,10.863
859.7978,11.243
860.0311,10.643
860.2644,11.363
860.4977,12.297
860.731,12.023
860.9643000000001,12.257
861.1976000000001,11.577
861.4309000000001,9.353
861.6642,10.507
861.8975,10.93
862.1308,10.787
862.3641,10.163
862.5974,10.277
862.8307000000001,10.64
863.0640000000001,10.35
863.2973000000001,10.033
863.5306,9.94
863.7639,10.52
863.9972,11.083
864.2305,11.23
864.4638,10.553
864.6971000000001,10.317
864.9304000000001,10.05
865.1637000000001,9.44
865.397,9.31
865.6303,9.557
865.8636,9.383
866.0969,8.907
866.3302,8.813
866.5635000000001,9.167
866.7968000000001,9.297
867.0301000000001,9.237
867.2634,8.98
867.4967,9.92
867.73,10.463
867.9633,9.963
868.1966,9.323
868.4299000000001,8.853
868.6632000000001,8.84
868.8965000000001,9.25
869.1298,10.5
869.3631,10.323
869.5964,10.06
869.8297,9.393
870.0630000000001,8.82
870.2963000000001,9.557
870.5296000000001,10.367
870.7629000000001,10.25
870.9962,9.757
871.2295,9.86
871.4628,10.123
871.6961,10.057
871.9294000000001,10.11
872.1627000000001,10.14
872.3960000000001,9.467
872.6293000000001,8.763
872.8626,9.177
873.0959,9.277
873.3292,9.453
873.5625,9.74
873.7958000000001,10.083
874.0291000000001,10.153
874.2624000000001,9.653
874.4957,9.387
874.729,9.98
874.9623,10.303
875.1956,10.087
875.4289,9.063
875.6622000000001,8.217
875.8955000000001,8.417
876.1288000000001,9.097
876.3621,9.87
876.5954,10.413
876.8287,10.013
877.062,9.137
877.2953,8.27
877.5286000000001,7.863
877.7619000000001,8.947
877.9952000000001,9.813
878.2285,9.95
878.4618,9.9
878.6951,9.457
878.9284,8.98
879.1617,8.73
879.3950000000001,8.697
879.6283000000001,8.723
879.8616000000001,8.537
880.0949,8.407
880.3282,8.12
880.5615,8.273
880.7948,8.213
881.0281,8.803
881.2614000000001,8.617
881.4947000000001,8.377
881.7280000000001,8.477
881.9613,7.577
882.1946,7.343
882.4279,7.88
882.6612,8.63
882.8945,8.543
883.1278000000001,8.61
883.3611000000001,9.12
883.5944000000001,8.89
883.8277,7.66
884.061,7.863
884.2943,8.383
884.5276,8.36
884.7609,7.8
884.9942000000001,7.213
885.2275000000001,7.77
885.4608000000001,8.38
885.6941,8.887
885.9274,7.887
886.1607,7.66
886.394,7.723
886.6273,7.607
886.8606000000001,7.07
887.0939000000001,7.117
887.3272000000001,7.44
887.5605,7.457
887.7938,7.627
888.0271,7.207
888.2604,6.3
888.4937000000001,6.3
888.7270000000001,7.0
888.9603000000001,7.32
889.1936000000001,6.833
889.4269,6.463
889.6602,6.187
889.8935,6.403
890.1268,6.66
890.3601000000001,6.88
890.5934000000001,7.56
890.8267000000001,7.907
891.0600000000001,7.5
891.2933,6.77
891.5266,6.297
891.7599,5.877
891.9932,5.943
892.2265000000001,6.223
892.4598000000001,6.397
892.6931000000001,6.997
892.9264000000001,7.623
893.1597,7.527
893.393,7.02
893.6263,6.16
893.8596,6.057
894.0929000000001,6.683
894.3262000000001,6.83
894.5595000000001,6.763
894.7928,6.817
895.0261,6.747
895.2594,5.85
895.4927,5.65
895.726,5.523
895.9593000000001,5.813
896.1926000000001,6.077
896.4259000000001,6.117
896.6592,5.81
896.8925,5.423
897.1258,5.327
897.3591,5.723
897.5924,5.39
897.8257000000001,4.73
898.0590000000001,4.907
898.2923000000001,5.58
898.5256,6.11
898.7589,5.86
898.9922,6.137
899.2255,6.27
899.4588,6.787
899.6921000000001,7.64
899.9254000000001,8.197
900.1587000000001,7.463
900.392,6.077
900.6253,5.543
900.8586,5.563
901.0919,5.327
901.3252,5.553
901.5585000000001,6.36
901.7918000000001,7.093
902.0251000000001,7.327
902.2584,6.997
902.4917,6.447
902.725,6.987
902.9583,6.367
903.1916,5.633
903.4249000000001,4.843
903.6582000000001,4.633
903.8915000000001,5.087
904.1248,5.783
904.3581,5.843
904.5914,6.063
904.8247,5.99
905.058,5.653
905.2913000000001,5.363
905.5246000000001,5.273
905.7579000000001,4.83
905.9912,4.473
906.2245,4.553
906.4578,4.823
906.6911,5.27
906.9244,5.933
907.1577000000001,6.613
907.3910000000001,7.153
907.6243000000001,7.467
907.8576,6.893
908.0909,6.187
908.3242,5.017
908.5575,3.787
908.7908000000001,3.653
909.0241000000001,4.55
909.2574000000001,4.493
909.4907000000001,4.69
909.724,5.153
909.9573,4.96
910.1906,5.373
910.4239,6.003
910.6572000000001,6.33
910.8905000000001,6.243
911.1238000000001,5.943
911.3571000000001,5.967
911.5904,5.447
911.8237,4.75
912.057,4.397
912.2903,4.603
912.5236000000001,5.227
912.7569000000001,5.483
912.9902000000001,5.25
913.2235000000001,5.017
913.4568,5.093
913.6901,4.587
913.9234,4.457
914.1567,4.68
914.3900000000001,4.553
914.6233000000001,4.44
914.8566000000001,4.813
915.0899000000001,5.303
915.3232,5.233
915.5565,4.767
915.7898,5.35
916.0231,5.357
916.2564000000001,5.443
916.4897000000001,5.323
916.7230000000001,4.823
916.9563,4.177
917.1896,3.76
917.4229,3.667
917.6562,4.31
917.8895,4.943
918.1228000000001,5.633
918.3561000000001,5.627
918.5894000000001,5.42
918.8227,5.537
919.056,5.49
919.2893,5.273
919.5226,5.147
919.7559,5.31
919.9892000000001,5.17
920.2225000000001,4.913
920.4558000000001,4.623
920.6891,4.803
920.9224,4.76
921.1557,4.647
921.389,4.89
921.6223,4.94
921.8556000000001,5.02
922.0889000000001,4.863
922.3222000000001,4.847
922.5555,4.84
922.7888,4.453
923.0221,4.407
923.2554,4.247
923.4887,4.557
923.7220000000001,4.603
923.9553000000001,4.517
924.1886000000001,4.467
924.4219,4.683
924.6552,4.64
924.8885,4.45
925.1218,4.257
925.3551,4.05
925.5884000000001,4.46
925.8217000000001,4.357
926.0550000000001,3.843
926.2883,3.927
926.5216,4.233
926.7549,3.797
926.9882,4.03
927.2215,4.427
927.4548000000001,4.303
927.6881000000001,3.543
927.9214000000001,3.8
928.1547,4.427
928.388,4.563
928.6213,4.067
928.8546,4.01
929.0879000000001,4.84
929.3212000000001,5.27
929.5545000000001,5.407
929.7878000000001,5.627
930.0211,5.327
930.2544,4.583
930.4877,4.38
930.721,4.287
930.9543000000001,4.473
931.1876000000001,4.617
931.4209000000001,4.853
931.6542000000001,4.953
931.8875,4.983
932.1208,4.967
932.3541,4.87
932.5874,5.533
932.8207000000001,5.493
933.0540000000001,5.52
933.2873000000001,5.857
933.5206000000001,5.84
933.7539,5.923
933.9872,5.79
934.2205,5.92
934.4538,5.973
934.6871000000001,5.71
934.9204000000001,5.797
935.1537000000001,5.063
935.3870000000001,4.063
935.6203,4.397
935.8536,4.937
936.0869,4.62
936.3202,5.517
936.5535000000001,5.59
936.7868000000001,5.147
937.0201000000001,4.25
937.2534,3.587
937.4867,3.733
937.72,3.997
937.9533,4.423
938.1866,5.313
938.4199000000001,5.34
938.6532000000001,5.287
938.8865000000001,5.167
939.1198,5.227
939.3531,5.577
939.5864,5.927
939.8197,6.227
940.053,5.507
940.2863000000001,5.087
940.5196000000001,5.093
940.7529000000001,5.91
940.9862,6.797
941.2195,7.003
941.4528,6.2
941.6861,5.517
941.9194,5.407
942.1527000000001,5.577
942.3860000000001,6.13
942.6193000000001,6.377
942.8526,6.15
943.0859,6.503
943.3192,6.587
943.5525,5.647
943.7858,4.493
944.0191000000001,5.087
944.2524000000001,5.87
944.4857000000001,6.05
944.719,6.13
944.9523,5.983
945.1856,5.577
945.4189,4.963
945.6522,4.837
945.8855000000001,5.46
946.1188000000001,5.827
946.3521000000001,5.96
946.5854,5.937
946.8187,6.07
947.052,6.087
947.2853,5.983
947.5186,6.017
947.7519000000001,6.26
947.9852000000001,6.673
948.2185000000001,7.06
948.4518,7.317
948.6851,7.393
948.9184,6.717
949.1517,6.02
949.3850000000001,6.357
949.6183000000001,6.213
949.8516000000001,6.223
950.0849000000001,5.85
950.3182,5.927
950.5515,6.79
950.7848,7.597
951.0181,7.557
951.2514000000001,7.89
951.4847000000001,7.447
951.7180000000001,6.917
951.9513000000001,6.833
952.1846,6.797
952.4179,6.807
952.6512,6.67
952.8845,6.67
953.1178000000001,7.26
953.3511000000001,8.223
953.5844000000001,8.623
953.8177000000001,8.23
954.051,7.563
954.2843,7.087
954.5176,6.787
954.7509,6.423
954.9842000000001,7.187
955.2175000000001,7.267
955.4508000000001,7.813
955.6841000000001,8.087
955.9174,7.817
956.1507,8.283
956.384,8.313
956.6173,7.61
956.8506000000001,8.22
957.0839000000001,7.613
957.3172000000001,7.537
957.5505,7.747
957.7838,7.847
958.0171,7.853
958.2504,7.777
958.4837,7.477
958.7170000000001,8.12
958.9503000000001,7.527
959.1836000000001,6.88
959.4169,6.753
959.6502,6.733
959.8835,6.613
960.1168,6.667
960.3501,6.677
960.5834000000001,6.433
960.8167000000001,6.707
961.0500000000001,6.73
961.2833,6.427
961.5166,6.677
961.7499,7.04
961.9832,6.877
962.2165,6.38
962.4498000000001,6.52
962.6831000000001,6.387
962.9164000000001,6.343
963.1497,6.373
963.383,6.807
963.6163,6.94
963.8496,6.49
964.0829,5.813
964.3162000000001,6.287
964.5495000000001,5.65
964.7828000000001,5.413
965.0161,5.65
965.2494,5.83
965.4827,5.767
965.716,5.807
965.9493,6.043
966.1826000000001,5.797
966.4159000000001,5.57
966.6492000000001,5.757
966.8825,6.56
967.1158,6.94
967.3491,7.277
967.5824,6.73
967.8157,5.827
968.0490000000001,5.487
968.2823000000001,5.12
968.5156000000001,5.34
968.7489,5.793
968.9822,5.813
969.2155,6.693
969.4488,7.307
969.6821000000001,6.76
969.9154000000001,5.943
970.1487000000001,5.873
970.3820000000001,5.383
970.6153,5.017
970.8486,4.933
971.0819,5.263
971.3152,5.46
971.5485000000001,5.437
971.7818000000001,6.913
972.0151000000001,6.753
972.2484000000001,6.557
972.4817,6.323
972.715,6.147
972.9483,5.883
973.1816,5.727
973.4149000000001,5.97
973.6482000000001,6.023
973.8815000000001,6.787
974.1148000000001,7.26
974.3481,7.457
974.5814,7.627
974.8147,7.673
975.048,6.83
975.2813000000001,5.76
975.5146000000001,6.107
975.7479000000001,6.333
975.9812000000001,6.513
976.2145,7.02
976.4478,7.46
976.6811,7.427
976.9144,6.953
977.1477000000001,6.563
977.3810000000001,6.603
977.6143000000001,6.333
977.8476,6.28
978.0809,6.76
978.3142,7.203
978.5475,7.33
978.7808,7.18
979.0141000000001,7.217
979.2474000000001,7.07
979.4807000000001,6.663
979.714,6.663
979.9473,6.69
980.1806,7.113
980.4139,7.54
980.6472,7.603
980.8805000000001,6.833
981.1138000000001,7.247
981.3471000000001,7.167
981.5804,7.317
981.8137,7.853
982.047,8.137
982.2803,7.917
982.5136,7.163
982.7469000000001,6.457
982.9802000000001,6.917
983.2135000000001,6.663
983.4468,6.447
983.6801,6.737
983.9134,7.033
984.1467,7.123
984.38,6.973
984.6133000000001,7.157
984.8466000000001,6.66
985.0799000000001,7.31
985.3132,7.647
985.5465,7.283
985.7798,7.097
986.0131,7.423
986.2464,7.58
986.4797000000001,7.583
986.7130000000001,6.407
986.9463000000001,6.63
987.1796,6.497
987.4129,6.26
987.6462,6.787
987.8795,7.067
988.1128000000001,6.487
988.3461000000001,5.503
988.5794000000001,4.79
988.8127000000001,4.803
989.046,5.853
989.2793,7.877
989.5126,8.993
989.7459,9.637
989.9792000000001,9.443
990.2125000000001,8.493
990.4458000000001,7.46
990.6791000000001,7.94
990.9124,7.877
991.1457,7.28
991.379,7.15
991.6123,7.35
991.8456000000001,6.977
992.0789000000001,6.317
992.3122000000001,7.863
992.5455000000001,8.687
992.7788,8.86
993.0121,8.677
993.2454,8.72
993.4787,8.453
993.7120000000001,7.867
993.9453000000001,8.22
994.1786000000001,8.95
994.4119000000001,9.083
994.6452,8.923
994.8785,8.923
995.1118,9.157
995.3451,9.95
995.5784000000001,10.117
995.8117000000001,9.487
996.0450000000001,9.47
996.2783000000001,9.503
996.5116,9.347
996.7449,9.457
996.9782,9.193
997.2115,8.853
997.4448000000001,8.327
997.6781000000001,7.973
997.9114000000001,8.093
998.1447000000001,7.76
998.378,7.763
998.6113,8.267
998.8446,9.09
999.0779,9.073
999.3112000000001,9.003
999.5445000000001,9.1
999.7778000000001,9.193
1000.0111,9.35
1000.2444,9.753
1000.4777,9.6
1000.711,8.557
1000.9443,8.573
1001.1776000000001,9.363
1001.4109000000001,9.633
1001.6442000000001,10.08
1001.8775,9.723
1002.1108,8.663
1002.3441,7.877
1002.5774,7.893
1002.8107,8.027
1003.0440000000001,8.4
1003.2773000000001,9.18
1003.5106000000001,9.853
1003.7439,10.043
1003.9772,10.22
1004.2105,10.207
1004.4438,9.423
1004.6771,8.827
1004.9104000000001,8.577
1005.1437000000001,8.757
1005.3770000000001,8.94
1005.6103,8.757
1005.8436,8.337
1006.0769,8.327
1006.3102,8.867
1006.5435,9.41
1006.7768000000001,10.247
1007.0101000000001,10.647
1007.2434000000001,10.097
1007.4767,9.017
1007.71,8.063
1007.9433,8.153
1008.1766,8.553
1008.4099000000001,8.933
1008.6432000000001,8.963
1008.8765000000001,9.127
1009.1098000000001,10.17
1009.3431,10.81
1009.5764,10.94
1009.8097,10.687
1010.043,10.44
1010.2763000000001,10.873
1010.5096000000001,11.103
1010.7429000000001,11.043
1010.9762000000001,10.173
1011.2095,9.717
1011.4428,9.343
1011.6761,9.8
1011.9094,10.26
1012.1427000000001,10.457
1012.3760000000001,10.103
1012.6093000000001,9.983
1012.8426000000001,0.0
